Jaz Data File
++++++++++++++++++++++++++++++++++++
Date: Mon Sep 17 14:58:29 2018
User: jaz
Dark Spectrum Present: Yes
Reference Spectrum Present: Yes
Processed Spectrum Present: Yes
Spectrometers: JAZA3098
Integration Time (usec): 232000 (JAZA3098)
Spectra Averaged: 20 (JAZA3098)
Boxcar Smoothing: 0 (JAZA3098)
Correct for Electrical Dark: No (JAZA3098)
Strobe/Lamp Enabled: Yes (JAZA3098)
Correct for Detector Non-linearity: No (JAZA3098)
Correct for Stray Light: No (JAZA3098)
Number of Pixels in Processed Spectrum: 2048
>>>>>Begin Processed Spectral Data<<<<<
W	D	R	S	P
190.313904	0.000000	0.000000	0.000000	0.000000
190.695511	0.000000	0.000000	0.000000	0.000000
191.077087	931.613953	922.574585	909.919617	239.998383
191.458633	937.941528	933.760742	928.450195	227.022690
191.840149	949.692566	965.172241	943.365051	-40.876274
192.221634	959.183777	945.285950	949.353638	70.731483
192.603088	975.228638	984.154968	980.539246	59.493740
192.984528	1000.425598	1008.448059	1002.233521	22.535757
193.365921	995.792969	1019.521179	991.160461	-19.523205
193.747284	988.222656	987.544617	999.747742	-1699.765991
194.128616	988.109558	1000.086731	991.838257	31.131710
194.509918	992.629272	1016.244507	1014.549683	92.823174
194.891190	997.487976	1004.154480	1002.911499	81.354828
195.272446	994.663208	1002.572571	1007.318176	159.999847
195.653656	1029.125610	1043.475464	1034.210205	35.433079
196.034836	1014.323608	1014.436646	997.939819	-14494.168945
196.416000	979.070435	991.838257	981.782104	21.238312
196.797104	1010.707825	1010.255859	1012.515808	-400.027008
197.178192	1007.431152	1025.509766	995.115051	-68.125252
197.559265	985.623718	1003.137512	1000.425659	84.515900
197.940292	971.161011	990.256470	972.742981	8.284536
198.321304	975.906433	979.409363	969.804993	-174.181076
198.702271	979.748352	985.736816	978.053406	-28.303522
199.083221	983.477051	978.279419	971.499878	230.435196
199.464111	971.951965	967.997192	967.997192	100.000000
199.844986	977.714478	977.714478	983.250977	0.000000
200.225830	960.991821	986.188782	974.098633	52.017429
200.606659	962.912476	1007.318054	976.584473	30.788918
200.987427	1012.063843	1080.988525	1026.526611	20.983438
201.368195	960.087708	998.956909	982.008179	56.395477
201.748917	984.832825	993.759277	987.657593	31.644913
202.129608	964.268372	989.239563	961.443542	-11.312352
202.510284	976.019531	998.617859	961.330688	-64.999687
202.890915	953.195190	1000.199829	952.178345	-2.163288
203.271515	972.064819	995.341003	971.160828	-3.883762
203.652100	970.596008	999.069702	984.380981	48.413013
204.032623	969.692078	979.183289	974.776672	53.571613
204.413147	961.895691	988.109680	955.794067	-23.276211
204.793625	970.708984	1001.216614	964.607544	-19.999720
205.174088	956.811035	986.075806	942.913086	-47.490376
205.554504	950.483398	972.403809	973.646667	105.669868
205.934906	949.918457	974.550476	952.178345	9.174594
206.315247	957.375854	973.759766	953.873169	-21.378813
206.695587	958.844849	992.629211	952.517273	-18.729303
207.075882	972.742859	986.527710	988.222778	112.296600
207.456146	939.975281	971.725891	954.777161	46.619198
207.836380	965.737427	997.375000	974.776733	28.571428
208.216599	961.104614	995.679993	969.353027	23.856321
208.596771	952.291504	966.980164	955.342102	20.768391
208.976913	973.420715	1000.086731	984.380981	41.102001
209.357025	1026.300659	1039.746704	1016.357544	-73.948250
209.737106	963.703430	981.443054	962.008667	-9.553546
210.117157	967.319214	987.883606	965.511353	-8.791222
210.497177	971.499817	966.415344	954.664185	331.118561
210.877167	968.336121	984.606934	966.189148	-13.195239
211.257126	967.771301	988.335632	950.596558	-83.517151
211.637070	992.629272	1016.922546	969.578979	-94.883438
212.016968	964.607422	1000.538757	969.014160	12.264332
212.396835	965.285278	984.606934	966.867371	8.188182
212.776672	959.409973	976.923645	954.325195	-29.033192
213.156464	962.799500	985.510925	947.319702	-68.158630
213.536255	945.850891	981.104187	956.359070	29.807650
213.916000	962.912598	983.929016	961.217773	-8.064286
214.295700	956.924011	980.426270	958.844849	8.172991
214.675400	965.172363	979.635254	974.663696	65.625420
215.055038	945.624878	979.522339	948.788574	9.333137
215.434662	975.002625	982.347046	964.042480	-149.230865
215.814240	992.742310	1020.086121	1005.849121	47.933376
216.193787	960.878723	1002.233582	959.748840	-2.732165
216.573334	980.087280	994.437134	975.002563	-35.433929
216.952820	965.963257	995.002075	950.144531	-54.474411
217.332275	953.421204	976.810547	963.703430	43.961159
217.711716	967.771179	1001.216675	970.144043	7.094718
218.091125	952.404297	988.335632	947.432800	-13.836103
218.470505	1018.165344	1050.367798	993.533203	-76.491501
218.849854	958.166992	996.018921	963.364563	13.731323
219.229156	970.595886	985.397827	964.494446	-41.220543
219.608444	959.522827	982.460144	950.257446	-40.394352
219.987671	998.391968	1023.023926	1007.996094	38.990509
220.366898	963.364624	1008.109009	984.493958	47.222313
220.746094	990.143433	1010.481934	990.934448	3.889252
221.125244	981.330200	1009.351868	993.420288	43.145496
221.504364	961.104797	998.165894	978.053345	45.731369
221.883469	944.269043	1004.719360	957.263000	21.495268
222.262512	948.675781	997.261902	965.172363	33.953281
222.641556	954.551147	973.872864	946.980774	-39.180649
223.020554	940.992065	996.019043	955.342102	26.078184
223.399521	958.618774	997.600891	976.697449	46.376842
223.778473	965.850403	982.799133	950.483521	-90.666862
224.157364	953.421265	986.075806	951.726440	-5.190164
224.536240	967.093140	967.545105	964.268433	-624.983093
224.915085	951.387390	984.154968	948.788574	-7.931059
225.293900	971.499817	983.250977	960.652710	-92.306694
225.672684	970.595886	997.148926	968.562195	-7.658978
226.051437	970.369995	1005.962219	970.483093	0.317761
226.430161	938.506470	990.256470	946.867798	16.157156
226.808838	944.268921	997.600891	960.539673	30.508440
227.187500	980.765137	1048.786011	990.821472	14.784190
227.566132	962.234680	1010.142883	953.986206	-17.217247
227.944717	969.240112	1019.521301	970.257141	2.022682
228.323288	978.731262	1031.837280	986.753784	15.106615
228.701813	951.839478	1022.458984	975.906616	34.080017
229.080307	953.986206	1021.894165	964.833374	15.973338
229.458786	972.855835	1043.814331	980.652161	10.987164
229.837234	957.489075	1041.893555	987.092773	35.073612
230.215637	945.285950	1037.938721	979.974243	37.439026
230.594009	949.692566	1062.344849	992.064331	37.612877
230.972351	942.009155	1049.915894	991.951355	46.282745
231.350662	969.014038	1039.972778	987.544617	26.114582
231.728958	938.054504	1049.125000	984.041870	41.403763
232.107193	966.641235	1053.644775	991.160461	28.181871
232.485413	952.065308	1036.469971	979.974243	33.065632
232.863602	1060.424072	1156.127808	1086.977295	27.745232
233.241760	957.828003	1050.706787	989.013489	33.576546
233.619873	942.913208	1041.667603	979.070313	36.613159
233.997986	988.674683	1057.260376	1010.482056	31.795805
234.376038	968.223267	1055.113525	986.979675	21.586319
234.754074	966.641235	1070.254517	981.895020	14.721843
235.132065	958.844849	1044.605225	988.335571	34.387352
235.510025	969.579102	1050.819824	985.058899	19.054234
235.887970	963.364563	1051.610962	982.912109	22.151098
236.265869	971.499817	1051.045898	990.030579	23.295631
236.643738	967.093262	1058.842285	997.713989	33.374447
237.021576	950.483582	1064.491821	969.013977	16.253557
237.399384	941.896118	1054.322510	970.144043	25.125706
237.777161	969.918091	1086.637939	1017.826477	41.045620
238.154892	954.890259	1066.525635	992.968262	34.109261
238.532623	956.923950	1080.875610	975.906616	15.314571
238.910309	940.879211	1060.989136	996.922974	46.660393
239.287949	951.839355	1070.141479	988.787598	31.232103
239.665573	947.319702	1071.384277	1002.346558	44.353397
240.043167	960.313660	1081.101563	1000.764648	33.489273
240.420715	955.003113	1090.705811	1007.092285	38.384773
240.798233	965.172363	1088.671875	989.013672	19.304779
241.175735	966.528320	1097.033447	995.793091	22.424231
241.553207	944.381958	1097.937256	995.906128	33.554146
241.930634	944.720825	1092.513672	994.098145	33.409817
242.308014	963.364563	1141.777832	1008.900085	25.522497
242.685394	951.726379	1151.269165	1011.159851	29.784826
243.062729	969.014160	1189.234375	1017.713379	22.113873
243.440033	970.031067	1200.985596	1011.724915	18.052837
243.817307	977.036499	1228.894287	1038.164795	24.270958
244.194534	971.161011	1214.318359	1035.566162	26.487026
244.571747	982.346985	1238.046509	1045.057373	24.525032
244.948929	960.652710	1230.137085	1030.820435	26.037771
245.326065	965.172485	1192.398071	1025.283813	26.454472
245.703186	979.974426	1227.312256	1031.611328	20.877073
246.080261	950.370605	1193.075928	1029.125488	32.448765
246.457306	947.319702	1208.216797	1031.046265	32.091797
246.834320	969.466125	1234.543701	1027.091553	21.739080
247.211304	968.901184	1268.780151	1025.396729	18.839449
247.588257	972.064758	1307.197388	1058.164185	25.691151
247.965195	971.612976	1356.235596	1086.751099	29.935349
248.342087	945.850891	1386.743164	1084.265259	31.394146
248.718933	950.935547	1401.771240	1078.389771	28.270660
249.095764	939.297241	1419.171631	1069.011475	27.030872
249.472549	955.794067	1411.262451	1086.638062	28.727350
249.849319	951.839478	1370.020508	1068.559570	27.911379
250.226044	970.144043	1356.009521	1067.881592	25.329435
250.602737	954.212219	1328.439697	1050.932861	25.845415
250.979401	965.285339	1295.785034	1049.689941	25.538481
251.356033	979.409302	1306.519287	1055.000610	23.108835
251.732635	971.612976	1286.180908	1042.458496	22.521532
252.109207	967.658203	1280.757202	1033.532227	21.039360
252.485748	971.048035	1292.960327	1051.723633	25.061359
252.862244	949.127625	1293.751343	1052.740723	30.065575
253.238724	962.347534	1301.660767	1029.803467	19.880136
253.615158	942.800110	1297.932129	1025.170654	23.194345
253.991577	962.573608	1315.897705	1029.916382	19.059774
254.367950	955.455078	1317.705566	1028.221680	20.087372
254.744308	986.979797	1334.880127	1070.367310	23.968794
255.120621	956.359009	1302.338623	1046.187012	25.963381
255.496902	958.505981	1272.395874	1032.063232	23.434093
255.873154	953.195190	1272.734863	1015.453491	19.483747
256.249390	946.867859	1259.514893	1005.962280	18.901321
256.625549	956.697937	1287.762695	1031.385376	22.559767
257.001709	992.403198	1324.598022	1029.351440	11.122461
257.377838	957.149902	1332.959229	1047.317139	23.992815
257.753937	955.568176	1321.095337	1033.984131	21.452839
258.129974	949.353699	1330.134399	1032.967163	21.958429
258.506012	941.895996	1374.766113	1049.803101	24.928288
258.881989	968.223145	1401.657959	1040.763672	16.736202
259.257935	962.799622	1420.527588	1064.039795	22.117979
259.633911	948.788696	1483.237915	1056.808350	20.211397
260.009766	960.087708	1530.016357	1062.796875	18.021408
260.385651	1006.188293	1620.296265	1134.998413	20.975159
260.761475	950.144409	1634.759521	1101.327026	22.082863
261.137299	962.121582	1704.135986	1108.897583	19.780748
261.513062	939.862305	1729.333008	1103.360840	20.709892
261.888763	995.454102	1758.823975	1149.574341	20.189459
262.264496	957.941040	1707.186768	1088.333008	17.403097
262.640137	962.912476	1668.091797	1076.130127	16.055157
263.015808	950.596558	1592.500488	1062.119141	17.373718
263.391388	988.335632	1595.438232	1099.406128	18.295177
263.766998	993.307251	1572.161987	1105.620605	19.402683
264.142517	977.940430	1549.789917	1096.355225	20.707336
264.518036	954.890137	1505.610229	1040.537598	15.551904
264.893524	971.612915	1499.169678	1067.881470	18.247999
265.268951	983.815918	1536.004883	1072.401123	16.042553
265.644379	947.093628	1469.566040	1051.384888	19.961103
266.019745	958.957886	1465.837280	1045.848267	17.142220
266.395111	971.047852	1485.158813	1066.525635	18.571436
266.770386	977.714355	1519.734131	1083.813232	19.574724
267.145691	963.816589	1529.790161	1069.689453	18.706326
267.520966	970.369995	1560.975830	1068.559448	16.625208
267.896149	978.505371	1593.404541	1071.158447	15.068011
268.271362	969.917969	1588.432861	1082.005615	18.122061
268.646515	943.139038	1600.974854	1065.621826	18.619051
269.021606	974.889771	1641.313110	1103.586792	19.311602
269.396729	959.296875	1639.730835	1068.446533	16.041183
269.771790	940.088196	1627.188965	1071.610352	19.141611
270.146790	941.218262	1647.188477	1068.898560	18.085791
270.521790	962.799622	1651.369141	1073.983154	16.147032
270.896759	965.624390	1659.730225	1087.428955	17.548414
271.271667	974.776550	1703.457764	1083.700195	14.948051
271.646545	948.449585	1716.225952	1076.694824	16.703463
272.021423	952.178528	1781.422119	1082.570435	15.724198
272.396271	940.653198	1819.726196	1093.982422	17.442150
272.771027	959.974792	1864.244751	1093.078735	14.719492
273.145813	963.025757	1906.390625	1120.874512	16.732525
273.520538	980.539185	1935.881226	1139.856934	16.676514
273.895233	978.279175	1930.683838	1114.546997	14.307765
274.269897	959.296875	1881.080322	1106.072632	15.923019
274.644501	966.302368	1844.810181	1088.559082	13.916406
275.019135	987.657593	1842.324219	1119.292603	15.401913
275.393677	949.692383	1814.867554	1083.926147	15.515212
275.768250	948.110535	1814.076416	1083.361328	15.618490
276.142700	932.630859	1816.336304	1107.089478	19.741716
276.517212	955.907043	1854.640625	1098.502075	15.866219
276.891632	962.686523	1859.273193	1109.010376	16.320101
277.266022	954.099304	1873.623047	1091.044800	14.893089
277.640381	954.890137	1922.548218	1114.998779	16.545994
278.014740	981.443176	1929.779541	1123.812256	15.012508
278.389038	955.794128	1957.349609	1106.863647	15.083489
278.763336	954.890259	1966.727905	1103.021851	14.639857
279.137543	944.608032	1958.140625	1117.936768	17.101446
279.511780	949.918579	1956.219482	1118.275635	16.730289
279.885925	954.325195	1977.236328	1125.055176	16.690598
280.260101	956.020020	1952.491455	1115.111938	15.965528
280.634186	966.415161	1990.230469	1117.823853	14.788672
281.008301	985.171875	2048.533691	1151.043213	15.598767
281.382294	956.132935	2043.901001	1112.400146	14.365858
281.756348	970.144043	2131.017334	1126.750000	13.490357
282.130280	943.591125	2177.682861	1139.291992	15.857885
282.504272	971.386902	2266.381348	1169.347900	15.286630
282.878143	955.681152	2271.013916	1154.658936	15.127563
283.252014	970.708862	2323.780762	1191.042114	16.283928
283.625854	1001.555542	2400.162598	1220.645874	15.664895
283.999664	968.675171	2376.095947	1173.754517	14.571289
284.373444	962.121460	2407.733643	1188.330322	15.647964
284.747192	963.929565	2369.429199	1175.901367	15.081597
285.120941	983.476929	2396.885986	1205.730835	15.724669
285.494629	936.472534	2404.569580	1163.472290	15.462176
285.868256	956.811035	2435.642334	1169.912720	14.410142
286.241882	982.234070	2489.990967	1192.624146	13.953847
286.615448	966.867188	2542.645020	1218.724976	15.983077
286.988983	938.958374	2560.158691	1176.579346	14.657102
287.362518	985.171997	2609.875000	1223.809570	14.688073
287.736023	962.686646	2639.930664	1207.764893	14.611961
288.109467	959.070923	2646.145020	1193.979858	13.924044
288.482880	973.985718	2634.394043	1218.499023	14.726095
288.856262	979.748230	2638.461426	1227.877197	14.959125
289.229584	976.923340	2594.508301	1197.708740	13.649076
289.602936	966.302429	2591.457275	1189.573242	13.738434
289.976227	991.612183	2607.163086	1227.425415	14.596459
290.349457	958.618958	2641.625488	1201.889282	14.454508
290.722687	958.279968	2656.427490	1205.843994	14.578476
291.095886	949.579590	2738.120117	1217.143188	14.959885
291.469025	979.635132	2819.812744	1235.447876	13.901525
291.842133	954.438171	2826.140381	1250.701660	15.828560
292.215240	969.805054	2885.460693	1247.876831	14.515750
292.588287	952.743286	2847.043457	1228.103271	14.536239
292.961304	944.608032	2851.111572	1237.594482	15.367737
293.334320	964.607544	2858.003662	1254.882324	15.330906
293.707245	955.455078	2837.100586	1227.199463	14.441848
294.080170	968.110168	2845.235840	1231.605957	14.037194
294.453064	940.540344	2910.318848	1253.978271	15.912343
294.825897	965.963257	2972.690186	1260.984009	14.701590
295.198730	935.229675	3035.513428	1253.752319	15.165696
295.571533	950.596375	3084.099854	1265.277344	14.749495
295.944275	957.150024	3153.476318	1288.440674	15.083855
296.317017	985.171753	3263.416992	1314.654663	14.462136
296.689697	965.285339	3318.444092	1300.756714	14.256215
297.062317	957.827942	3324.093262	1310.587036	14.907842
297.434967	977.375488	3395.843262	1332.846313	14.698183
297.807526	958.279785	3477.196533	1332.846191	14.870138
298.180115	946.189819	3553.014160	1333.863281	14.871485
298.552612	969.805054	3544.087402	1331.716309	14.058724
298.925110	951.952332	3584.990234	1339.851807	14.732013
299.297546	987.205566	3542.393066	1354.540649	14.376052
299.669983	953.421265	3482.281738	1331.490601	14.950187
300.042358	981.217163	3408.949951	1348.100098	15.112163
300.414734	960.991699	3351.211426	1324.597900	15.212250
300.787048	943.139038	3292.794434	1312.055786	15.700889
301.159332	954.776978	3256.863770	1316.123535	15.696478
301.531616	935.455750	3216.525879	1290.135498	15.548832
301.903809	964.268372	3213.474609	1308.327271	15.296903
302.276031	961.556641	3203.757568	1286.745850	14.503125
302.648163	948.675659	3195.961426	1289.683716	15.174219
303.020294	941.218140	3193.475098	1306.971313	16.239408
303.392395	958.618835	3203.418701	1316.688721	15.951083
303.764435	947.658691	3132.233887	1297.367065	16.008072
304.136444	948.336548	3137.092773	1296.237061	15.894895
304.508453	962.121704	3169.859863	1318.722412	16.152309
304.880371	995.228149	3147.035645	1290.135620	13.705104
305.252319	970.257019	3102.856445	1288.440674	14.919992
305.624207	987.431641	3121.161133	1310.473999	15.139799
305.996033	990.595398	3127.488525	1307.649170	14.837138
306.367859	960.878723	3114.494629	1295.107178	15.519408
306.739655	948.901672	3090.539795	1288.779785	15.870007
307.111389	949.240601	3152.572021	1297.141113	15.789748
307.483124	965.172363	3168.504395	1288.892578	14.692303
307.854828	972.177734	3201.271729	1308.553101	15.090228
308.226471	952.291321	3211.327637	1290.361572	14.965241
308.598083	964.833496	3287.145264	1299.626953	14.416388
308.969666	968.788208	3297.766357	1312.507935	14.758393
309.341187	975.115723	3373.583496	1333.637451	14.947948
309.712738	960.426636	3454.485596	1324.823975	14.610614
310.084167	963.364563	3470.869141	1349.569092	15.401947
310.455658	949.692383	3522.393311	1350.811890	15.591377
310.827057	970.257019	3602.842529	1366.291748	15.043566
311.198456	971.951782	3592.673828	1360.416260	14.822803
311.569794	960.991699	3566.233887	1352.054932	15.010629
311.941132	958.166870	3599.566406	1361.094116	15.254310
312.312408	948.336548	3599.792236	1352.506836	15.243337
312.683655	962.234558	3590.865967	1365.613770	15.345598
313.054840	969.805054	3567.250732	1357.139526	14.912129
313.426056	969.127136	3574.595215	1372.280396	15.473352
313.797180	986.075867	3601.374268	1360.077271	14.300526
314.168304	967.206177	3578.210938	1345.162354	14.475507
314.539368	930.709961	3542.618652	1320.643188	14.929052
314.910431	943.477905	3573.126465	1326.179688	14.553344
315.281433	951.274536	3629.283203	1349.456055	14.868567
315.652435	958.392761	3729.732422	1362.789185	14.592092
316.023346	959.748840	3740.805908	1364.822876	14.565470
316.394287	949.805481	3747.132813	1353.523682	14.432282
316.765137	976.019531	3750.071045	1376.912964	14.451550
317.135986	980.539246	3708.489746	1381.206665	14.687489
317.506775	959.522949	3634.593262	1357.591553	14.880678
317.877594	990.821472	3617.871094	1380.415771	14.830109
318.248291	973.759766	3555.499512	1345.727295	14.407631
318.619019	988.900513	3542.166748	1367.873535	14.842676
318.989655	977.488403	3600.244629	1357.478394	14.488193
319.360321	966.302368	3605.441895	1358.382202	14.856350
319.730896	965.172485	3634.367676	1359.512329	14.773735
320.101501	949.127625	3658.209473	1361.998291	15.240244
320.472015	955.455200	3685.213623	1350.698975	14.479075
320.842529	965.963379	3713.349121	1360.868164	14.373838
321.213013	969.917847	3683.744629	1361.772217	14.439182
321.583466	950.031616	3671.089844	1376.009033	15.654844
321.953827	938.393372	3633.915527	1336.123169	14.755204
322.324188	963.590515	3670.412109	1357.817505	14.564203
322.694519	946.302856	3691.428467	1338.495850	14.286887
323.064819	951.274414	3738.094238	1349.795044	14.300194
323.435059	972.855774	3831.312012	1368.212769	13.831137
323.805328	944.382019	3935.151123	1379.624756	14.552870
324.175507	970.369995	4039.780762	1400.415039	14.010672
324.545685	941.557251	4112.772949	1397.025513	14.362576
324.915802	949.466614	4261.356445	1417.363770	14.127799
325.285919	945.963989	4361.241211	1442.109131	14.527228
325.655975	950.822571	4397.624023	1430.696777	13.922304
326.025970	958.844727	4385.082031	1424.821045	13.600235
326.395966	953.082336	4352.993164	1437.476318	14.247255
326.765930	937.376587	4366.212891	1424.143311	14.196265
327.135864	960.087708	4349.942383	1444.142822	14.279524
327.505737	967.206360	4338.304199	1452.391235	14.392488
327.875580	958.279968	4238.758789	1420.414551	14.087413
328.245422	1018.504272	4227.458984	1476.684326	14.278172
328.615204	973.420776	4126.445313	1410.471436	13.861316
328.984955	963.364563	4062.492188	1397.590454	14.011230
329.354675	970.595886	4073.451904	1406.742676	14.056301
329.724365	961.217773	4022.266846	1395.217529	14.178138
330.093994	964.607544	4082.152832	1411.375366	14.330756
330.463623	965.624390	4103.733887	1411.262207	14.200838
330.833191	971.612915	4150.172852	1439.736328	14.727530
331.202759	949.805542	4217.403320	1431.600708	14.744630
331.572266	947.545715	4232.431152	1432.730835	14.770229
331.941711	944.156067	4291.751465	1455.328979	15.269854
332.311188	961.217651	4372.426758	1470.582764	14.932099
332.680573	959.635864	4416.041992	1478.718018	15.017973
333.049988	951.387512	4505.079590	1477.136353	14.794439
333.419312	981.217163	4595.923828	1507.869995	14.569726
333.788635	964.607422	4692.758301	1501.994385	14.414303
334.157867	954.325317	4821.229004	1533.292969	14.972383
334.527130	952.404419	4909.702148	1533.066895	14.673206
334.896332	993.646179	4962.242676	1561.992676	14.321095
335.265503	948.449585	4981.903320	1539.507568	14.653893
335.634613	959.522827	5009.699707	1580.184448	15.324309
336.003723	969.126953	4908.120117	1557.247192	14.930725
336.372772	1011.272827	4890.041504	1572.049072	14.457584
336.741821	957.602173	4831.624023	1540.524414	15.046952
337.110809	965.737183	4764.620605	1526.626465	14.764584
337.479797	981.217102	4736.373047	1546.400146	15.050854
337.848724	985.623840	4787.331543	1585.720947	15.784935
338.217590	975.115845	4819.194824	1570.580200	15.490429
338.586487	952.743347	4796.032227	1548.998779	15.514198
338.955292	974.776550	4859.420898	1573.744141	15.418853
339.324036	949.127563	4876.708008	1590.014893	16.317612
339.692841	958.618958	4912.186523	1574.421753	15.575876
340.061523	945.624878	4874.448242	1583.687134	16.240543
340.430237	965.624390	4906.764160	1588.319946	15.799886
340.798859	977.827454	4947.440430	1616.793823	16.096439
341.167511	960.878723	4947.327637	1615.437744	16.419601
341.536072	964.268433	4905.747070	1602.217773	16.185534
341.904663	951.048462	4958.513672	1621.200317	16.722586
342.273102	970.369934	4981.111816	1636.115356	16.599058
342.641632	993.081360	5023.370605	1692.610962	17.356808
343.010040	940.653198	5082.239258	1668.204712	17.566978
343.378510	965.850403	5152.293945	1677.018188	16.987398
343.746826	939.071411	5208.676758	1688.430298	17.551010
344.115204	967.997253	5281.217773	1706.508545	17.122038
344.483490	942.461060	5373.643555	1728.203125	17.732107
344.851776	964.720398	5493.979980	1765.603516	17.682428
345.220001	972.742798	5643.692871	1787.184326	17.436314
345.588196	961.895630	5663.467285	1804.020508	17.911560
345.956329	959.635925	5800.977051	1834.415283	18.068947
346.324524	954.438171	5824.253418	1825.262939	17.882090
346.692596	957.375977	5827.191895	1830.686157	17.933125
347.060669	1006.301147	5884.026367	1910.458252	18.536451
347.428680	963.251648	5768.774902	1844.245361	18.332939
347.796692	936.020508	5702.222168	1852.154907	19.221478
348.164612	960.652710	5647.421875	1830.347290	18.556377
348.532562	977.827515	5655.218262	1863.679688	18.939024
348.900421	996.810059	5597.141113	1865.035767	18.873114
349.268311	960.652832	5515.673828	1821.986084	18.909534
349.636108	985.397766	5632.506836	1865.939697	18.948166
350.003906	951.161438	5602.676758	1865.487549	19.656523
350.371643	968.787964	5657.591309	1860.742188	19.023067
350.739380	990.030579	5750.131836	1919.384521	19.523829
351.107025	952.630371	5829.451172	1913.396118	19.700657
351.474701	943.139038	5817.248047	1910.345459	19.843760
351.842285	953.534363	5887.641602	1944.581421	20.085640
352.209900	941.105164	5923.347168	1943.451538	20.118380
352.577393	966.076355	5957.244629	2007.744141	20.870218
352.944946	945.624817	5905.381348	1963.790283	20.528538
353.312378	965.511353	6058.258301	2003.902100	20.389601
353.679840	939.862305	6175.657227	2034.522827	20.907246
354.047211	962.686523	6382.317871	2080.962158	20.633795
354.414612	934.664673	6403.786133	2077.007568	20.887136
354.781891	931.613892	6626.493164	2109.661621	20.686087
355.149231	961.217773	6723.439941	2180.620850	21.162027
355.516449	959.183777	6841.627441	2202.541260	21.136749
355.883698	939.975281	6977.670410	2207.512207	20.993721
356.250854	966.641235	7146.140625	2268.188965	21.062349
356.618011	956.811035	7318.338867	2329.317383	21.575106
356.985168	940.540344	7436.980469	2346.266113	21.638403
357.352234	980.200317	7644.092773	2412.026855	21.486340
357.719269	948.788574	7890.301758	2439.371338	21.473455
358.086304	947.997681	8108.713379	2486.940186	21.491463
358.453278	944.946960	8361.701172	2545.356934	21.578306
358.820190	931.500854	8382.942383	2584.000488	22.176912
359.187103	936.585449	8562.373047	2592.587158	21.715813
359.554016	946.980774	8481.698242	2610.778809	22.081758
359.920837	943.478027	8523.730469	2599.366455	21.844767
360.287628	948.901550	8543.503906	2622.304199	22.034103
360.654388	945.963867	8615.706055	2649.534668	22.211578
361.021149	965.511414	8877.167969	2683.658203	21.716650
361.387848	978.279419	9182.920898	2769.192383	21.828047
361.754486	950.144531	9581.216797	2859.698730	22.124184
362.121124	953.421265	9984.595703	2936.194336	21.954763
362.487732	961.217651	10307.750977	3036.530029	22.204088
362.854279	941.105164	10341.196289	3038.677246	22.314381
363.220795	981.104126	10258.260742	3030.428711	22.090010
363.587311	971.499878	10048.662109	2989.978027	22.236885
363.953735	937.263489	9763.359375	2942.408447	22.718369
364.320160	953.873169	9381.334961	2853.823242	22.544748
364.686554	941.783203	8853.779297	2732.583252	22.633986
365.052887	937.715515	8587.910156	2650.551758	22.389444
365.419189	949.466614	8264.529297	2598.236816	22.539387
365.785492	940.427368	8101.255371	2583.209229	22.941227
366.151703	937.941406	8012.443848	2540.046143	22.646183
366.517944	975.454590	7980.920410	2549.311768	22.466131
366.884094	989.917603	7941.711914	2547.729980	22.408781
367.250214	958.618774	7869.059570	2500.160156	22.307425
367.616333	967.206238	7898.889160	2505.471191	22.191795
367.982361	984.832886	7876.177246	2498.917480	21.970816
368.348419	952.291321	7802.732910	2487.392334	22.408791
368.714386	951.952454	7794.484375	2450.444092	21.899668
369.080383	974.437683	7794.032715	2465.585205	21.865629
369.446289	1017.374390	7728.158691	2474.850342	21.718414
369.812195	990.256531	7651.550781	2440.727051	21.774603
370.178009	969.804993	7654.262695	2424.907715	21.768450
370.543854	956.359070	7746.350098	2422.874268	21.598188
370.909607	963.025574	7760.813477	2418.354736	21.408863
371.275360	953.647339	7794.936523	2442.421387	21.761600
371.641052	965.398315	7935.045410	2462.760498	21.484047
372.006744	963.251465	8000.242188	2481.177979	21.570677
372.372375	974.550598	8139.447754	2466.488770	20.822886
372.737976	964.268372	8120.689941	2474.963135	21.109640
373.103546	974.663574	8073.686035	2455.528809	20.860128
373.469055	956.811035	8147.921875	2478.918457	21.166513
373.834595	968.788208	8236.394531	2499.369385	21.060320
374.199982	972.177856	8187.693848	2452.139160	20.510817
374.565460	963.364441	8194.248047	2433.043213	20.325022
374.930817	933.082825	8363.396484	2435.303223	20.217457
375.296204	964.494507	8468.251953	2465.246094	20.000002
375.661499	944.156067	8549.945313	2469.313477	20.052588
376.026825	982.686035	8762.369141	2530.667969	19.897751
376.391998	947.206726	8890.500000	2503.098145	19.587484
376.757263	964.946289	9163.037109	2577.333496	19.667837
377.122406	939.523438	9378.396484	2594.056152	19.606087
377.487549	942.687134	9549.013672	2598.914795	19.244305
377.852631	945.511841	9806.183594	2619.818359	18.895931
378.217743	979.974304	10029.906250	2698.121338	18.985193
378.582764	960.200684	10016.685547	2657.444336	18.740646
378.947754	963.364441	9997.025391	2653.941650	18.714197
379.312714	964.268372	9804.713867	2606.032715	18.571060
379.677673	935.342590	9583.138672	2518.577881	18.307964
380.042542	962.799622	9340.431641	2501.855469	18.371014
380.407379	958.505981	9166.876953	2429.088867	17.915648
380.772186	957.036987	9118.517578	2433.608154	18.091953
381.136993	935.568665	9061.229492	2398.016113	17.997890
381.501740	937.602356	9035.695313	2405.925537	18.131718
381.866486	966.302368	9070.607422	2389.089844	17.555946
382.231110	961.330688	9082.472656	2378.468506	17.449982
382.595764	958.279785	9052.193359	2352.367676	17.223904
382.960327	942.009094	9033.887695	2320.956055	17.041124
383.324951	943.930054	9120.326172	2313.950439	16.755798
383.689453	953.873169	9220.096680	2361.972168	17.034369
384.053986	959.635864	9452.970703	2364.457520	16.540283
384.418396	956.471985	9526.642578	2384.457031	16.662271
384.782867	960.652710	9679.632813	2365.022705	16.107044
385.147217	976.358521	9861.548828	2405.586426	16.085506
385.511597	967.658081	9930.247070	2413.383057	16.130663
385.875885	948.449585	9981.884766	2382.084473	15.870317
386.240204	960.426758	9989.793945	2401.857422	15.963806
386.604401	955.907104	10013.974609	2352.819580	15.421750
386.968628	979.409363	10186.736328	2401.631836	15.446637
387.332764	942.799988	10237.922852	2361.181152	15.259412
387.696930	960.652649	10404.247070	2394.400146	15.182222
388.061005	992.968384	10416.336914	2427.732910	15.225602
388.425140	964.833374	10553.845703	2378.016602	14.737526
388.789124	964.720398	10582.208984	2415.981934	15.089818
389.153168	972.516907	10610.003906	2379.033691	14.594228
389.517090	941.783203	10624.580078	2373.158203	14.782660
389.881042	952.969360	10591.021484	2352.706543	14.523030
390.244873	945.398926	10596.558594	2318.018066	14.222322
390.608734	979.409180	10760.394531	2361.858887	14.134053
390.972534	948.449585	10857.002930	2320.616943	13.848311
391.336304	946.415833	10981.517578	2326.718506	13.754746
391.700043	955.003113	11125.471680	2326.605713	13.486129
392.063751	946.980774	11410.320313	2366.943604	13.570838
392.427399	929.128235	11550.544922	2367.395752	13.541203
392.791077	993.194214	11776.865234	2429.427490	13.318593
393.154663	961.556763	11674.382813	2392.705566	13.359209
393.518219	955.229126	11599.694336	2339.599365	13.005541
393.881744	955.003113	11488.625000	2349.203857	13.235720
394.245209	946.980835	11537.662109	2322.650879	12.989438
394.608704	930.484009	11510.996094	2287.397461	12.824649
394.972107	953.308411	11532.124023	2307.961670	12.805341
395.335480	964.494446	11603.197266	2331.915771	12.853271
395.698792	969.127075	11561.390625	2307.058105	12.631209
396.062103	1015.001587	11420.716797	2309.882813	12.443943
396.425385	960.087891	11170.554688	2233.952637	12.476068
396.788635	965.850403	11051.010742	2202.427979	12.261358
397.151825	957.601929	10920.166016	2175.309814	12.222836
397.514984	959.748840	10688.872070	2177.117920	12.512630
397.878113	977.714355	10623.789063	2138.023193	12.028819
398.241180	954.551147	10523.677734	2093.730469	11.904737
398.604248	965.850403	10495.318359	2086.499023	11.759825
398.967285	981.217163	10598.590820	2113.391113	11.772174
399.330231	984.493835	10529.101563	2109.549316	11.787341
399.693176	961.782593	10407.749023	2076.668701	11.802773
400.056091	961.556641	10480.967773	2060.849854	11.547912
400.418976	956.359070	10405.714844	2037.460571	11.441009
400.781830	970.257019	10403.794922	2062.996582	11.583560
401.144592	960.991821	10359.840820	2016.895874	11.234398
401.507355	992.064453	10444.358398	2038.703491	11.072858
401.870087	974.324585	10379.049805	2025.935303	11.181726
402.232758	968.788269	10570.908203	2027.969116	11.030699
402.595428	986.753723	10649.211914	2053.166504	11.036662
402.958038	964.946411	10855.194336	2037.234741	10.841875
403.320618	950.709595	10962.990234	2046.160889	10.941077
403.683167	953.760254	11101.291016	2061.302002	10.914396
404.045654	975.115601	11264.787109	2102.995605	10.961283
404.408142	951.048462	11323.205078	2087.289795	10.954726
404.770569	945.624878	11425.688477	2064.239502	10.673739
405.132996	977.036438	11731.103516	2126.384766	10.687570
405.495331	951.274414	11877.879883	2113.052002	10.632557
405.857666	977.601379	12057.874023	2165.479980	10.720663
406.219940	955.003113	12105.444336	2128.418701	10.523489
406.582214	955.907104	12017.423828	2120.622314	10.529435
406.944427	941.783081	11941.720703	2097.572266	10.507235
407.306549	935.455566	11833.587891	2056.781738	10.289159
407.668732	951.274414	11750.200195	2071.357910	10.372175
408.030792	944.833801	11653.705078	2052.036621	10.339119
408.392914	964.946411	11741.160156	2052.149902	10.088919
408.754883	964.381531	11624.439453	2033.392944	10.028196
409.116943	957.602051	11926.805664	2067.064209	10.114337
409.478882	954.099243	11861.720703	2054.635254	10.089606
409.840820	996.583984	12025.108398	2093.729980	9.948257
410.202667	952.517273	12220.922852	2058.929199	9.818708
410.564575	978.957397	12296.400391	2092.939453	9.843054
410.926331	960.652710	12295.721680	2081.075195	9.884566
411.288147	967.884155	12144.766602	2055.651855	9.732300
411.649872	944.494995	12276.626953	2062.657715	9.867188
412.011566	958.957886	12157.308594	2049.324951	9.736855
412.373199	967.206360	12063.185547	2028.647461	9.565998
412.734894	974.437622	11890.083984	2010.568726	9.492165
413.096436	955.003113	11871.327148	1991.473022	9.494679
413.458008	949.579590	11878.331055	2015.766357	9.755796
413.819519	955.568054	11970.533203	1991.247314	9.402474
414.181030	938.732422	11968.159180	1985.936523	9.494637
414.542450	949.805664	12072.114258	2002.094360	9.461063
414.903870	962.121460	12152.221680	2003.224243	9.303784
415.265198	954.438171	12322.953125	2022.771484	9.397299
415.626587	955.907227	12295.269531	2020.059937	9.384590
415.987854	955.906921	12499.898438	2019.494873	9.213346
416.349152	961.330688	12650.288086	2039.381470	9.222815
416.710327	946.076843	12802.714844	2037.573608	9.205787
417.071533	953.308289	12778.421875	2035.426514	9.151017
417.432678	952.856323	13206.206055	2084.126221	9.232332
417.793823	936.585449	13381.455078	2069.663086	9.104777
418.154877	928.224243	13612.974609	2085.820801	9.125892
418.515930	936.359558	14085.393555	2132.147461	9.094111
418.876923	958.392944	14456.908203	2178.247803	9.036956
419.237915	973.307739	14723.793945	2211.806396	9.006945
419.598816	962.799500	15106.947266	2218.924316	8.880880
419.959717	952.291504	15605.916992	2244.234619	8.816543
420.320526	943.365051	16305.673828	2314.063232	8.922476
420.681396	976.132690	16572.109375	2354.627686	8.838786
421.042145	959.635742	17083.390625	2371.802002	8.758297
421.402924	958.166870	17529.595703	2379.146729	8.574878
421.763580	956.698120	17836.820313	2434.738037	8.756097
422.124298	951.839478	18280.082031	2481.177246	8.825695
422.484894	971.273926	18452.962891	2506.375000	8.781194
422.845520	954.890259	18369.009766	2489.312988	8.811372
423.206055	951.952332	18285.169922	2446.940918	8.624991
423.566589	942.122070	18073.083984	2435.755371	8.718911
423.927063	964.720398	18161.216797	2461.404053	8.703422
424.287506	943.365051	17968.230469	2412.139893	8.627234
424.647949	960.878723	18085.287109	2443.438721	8.657584
425.008301	933.195923	18325.394531	2442.873535	8.680200
425.368652	949.579468	18440.984375	2468.409668	8.683295
425.728943	953.534302	18157.261719	2434.512207	8.608472
426.089203	945.398926	18535.222656	2475.979980	8.701514
426.449432	953.195313	18349.347656	2445.811279	8.580150
426.809601	964.720520	18347.652344	2426.489746	8.409222
427.169739	927.094360	18342.566406	2419.484619	8.569335
427.529846	985.849792	18193.646484	2448.184082	8.498091
427.889954	999.408875	18090.144531	2453.494629	8.508034
428.250000	944.156067	17697.730469	2379.824219	8.569324
428.609985	953.195313	17561.121094	2360.163818	8.471669
428.969940	965.850281	17316.154297	2311.690918	8.231288
429.329865	979.635254	17305.871094	2339.825684	8.331317
429.689789	983.477173	17040.570313	2322.198730	8.337260
430.049622	958.957886	17026.332031	2325.249512	8.503515
430.409454	958.618835	16694.025391	2268.188965	8.322442
430.769226	975.228516	16508.605469	2277.680176	8.384858
431.128937	976.471375	16303.865234	2263.443359	8.396547
431.488678	943.703979	16510.638672	2247.737305	8.376944
431.848328	964.607422	16680.691406	2262.878418	8.260779
432.207947	963.251465	16489.169922	2231.692871	8.169832
432.567566	960.765747	16729.730469	2261.974121	8.251704
432.927124	951.161316	16793.230469	2264.347412	8.289233
433.286621	965.059387	17091.980469	2312.255371	8.353709
433.646118	949.692505	17415.019531	2322.537598	8.337794
434.005554	962.912476	17328.810547	2313.950684	8.255203
434.364960	996.132019	17288.810547	2341.181641	8.255546
434.724335	951.613464	17327.566406	2301.634277	8.243921
435.083649	966.302246	17008.140625	2299.374512	8.309972
435.442932	954.099243	16959.667969	2250.901367	8.102194
435.802216	970.596008	17085.089844	2301.860107	8.261284
436.161407	982.686035	16842.044922	2288.640137	8.234595
436.520630	960.313660	16916.730469	2257.229004	8.127860
436.879761	945.059937	17163.617188	2270.222900	8.170658
437.238831	958.731812	17376.492188	2297.227783	8.152732
437.597931	952.743347	17475.363281	2279.601074	8.030553
437.956940	962.573608	17320.449219	2287.962646	8.102452
438.315948	942.461121	17463.158203	2307.623047	8.263343
438.674896	970.483032	17410.839844	2301.295410	8.094790
439.033844	961.104797	17149.492188	2279.035889	8.141213
439.392700	948.449707	17362.257813	2277.793457	8.098935
439.751556	956.020142	17331.408203	2290.561035	8.149675
440.110352	954.664185	18045.513672	2320.503906	7.991643
440.469116	956.020020	18088.113281	2321.520996	7.970427
440.827850	945.624878	18286.751953	2334.853516	8.011179
441.186554	971.951965	18903.683594	2421.630859	8.084434
441.545197	940.201355	19043.566406	2390.671387	8.012156
441.903809	979.409363	19249.662109	2423.778564	7.905579
442.262390	951.613281	19076.675781	2398.807129	7.984490
442.620941	962.347656	18770.128906	2396.434326	8.053146
442.979462	952.517395	18842.105469	2380.728271	7.983476
443.337921	975.906616	18720.070313	2374.513916	7.882069
443.696350	953.760254	18374.771484	2336.435791	7.936827
444.054718	958.279968	18395.337891	2359.146973	8.033849
444.413086	995.906067	18786.851563	2399.032715	7.886746
444.771423	993.194214	19161.531250	2436.659424	7.944949
445.129669	969.466003	18577.251953	2365.813232	7.930283
445.487915	933.534851	17412.423828	2268.527832	8.101232
445.846130	958.844849	17941.449219	2314.289551	7.981372
446.204285	940.314331	17986.761719	2301.747314	7.986609
446.562408	967.884094	18561.431641	2396.886230	8.122309
446.920532	939.862305	19400.283203	2418.241699	8.008372
447.278595	962.008667	19765.355469	2467.279785	8.005336
447.636566	941.896179	20449.181641	2508.634277	8.031553
447.994568	969.353149	20976.623047	2551.910400	7.909911
448.352509	960.087708	21073.230469	2577.672119	8.042425
448.710419	934.099731	20955.609375	2552.023438	8.080928
449.068237	933.986816	20834.027344	2534.735840	8.043948
449.426056	959.409851	20978.771484	2558.802734	7.989230
449.783844	970.482788	20521.609375	2524.114746	7.946508
450.141602	957.263000	20481.382813	2524.792480	8.028683
450.499329	942.912964	20260.597656	2485.019287	7.982873
450.856964	973.759766	19858.574219	2496.883545	8.065336
451.214630	964.946472	19957.779297	2514.058105	8.156296
451.572235	952.856445	19614.289063	2462.646973	8.090431
451.929779	950.483521	19697.449219	2460.161377	8.052918
452.287323	969.240051	19792.812500	2491.233887	8.085574
452.644806	972.629883	19706.035156	2498.126465	8.143188
453.002258	980.652039	19646.376953	2495.188965	8.113999
453.359650	967.545227	19305.480469	2471.008545	8.198651
453.717010	973.985718	19371.472656	2466.602051	8.113153
454.074341	969.014038	18963.003906	2421.179199	8.070279
454.431641	973.533813	18853.628906	2417.902832	8.078083
454.788910	966.980286	18625.160156	2391.350098	8.066346
455.146118	951.839355	18622.673828	2424.569336	8.334242
455.503296	945.624878	18337.933594	2383.214355	8.265662
455.860443	946.302856	18698.041016	2433.495117	8.377728
456.217560	954.212097	18335.113281	2388.637939	8.252886
456.574615	986.866821	18111.160156	2404.230957	8.276920
456.931641	977.375488	18296.693359	2414.399902	8.297235
457.288635	964.381348	18386.521484	2396.773438	8.221677
457.645599	952.517395	18176.583984	2370.446045	8.232253
458.002502	970.596008	18495.105469	2430.331787	8.329681
458.359375	959.522766	18518.269531	2415.755371	8.293489
458.716217	967.771179	19216.894531	2478.804932	8.280034
459.073029	964.042480	19969.304688	2541.740723	8.301376
459.429779	995.002136	20826.796875	2605.807129	8.122335
459.786499	980.652161	21740.218750	2671.794434	8.146328
460.143219	962.573547	22565.283203	2714.843994	8.111346
460.499847	948.336731	22632.738281	2700.155273	8.078704
460.856476	962.912598	23432.492188	2781.282471	8.092585
461.213043	970.256958	23473.736328	2805.575928	8.155712
461.569550	983.138000	23422.324219	2814.615234	8.161960
461.926056	989.691406	23137.472656	2773.825195	8.055587
462.282501	983.589966	22484.945313	2750.323486	8.216847
462.638916	960.652710	21859.197266	2649.987061	8.083502
462.995331	949.127625	21229.044922	2629.987305	8.288296
463.351654	963.816406	21093.570313	2634.732910	8.300730
463.707947	954.664246	20570.988281	2606.824219	8.422373
464.064209	980.991089	20398.220703	2578.350342	8.226504
464.420441	949.579590	20180.488281	2516.204590	8.146391
464.776642	945.285950	19897.554688	2515.301270	8.284049
465.132782	963.929504	19953.826172	2511.685059	8.150416
465.488892	953.534302	19688.410156	2490.217285	8.202259
465.844971	961.104675	19968.060547	2506.827148	8.132404
466.201019	941.896118	20165.908203	2517.447754	8.195748
466.557007	946.076965	20183.083984	2510.329346	8.131474
466.912964	956.698059	20509.517578	2565.130371	8.226089
467.268890	947.319702	20767.251953	2530.667969	7.988667
467.624756	943.816895	20936.853516	2561.627441	8.091870
467.980591	959.974792	21240.574219	2611.569824	8.143719
468.336426	963.138672	21178.654297	2626.032715	8.225830
468.692169	958.957825	21075.716797	2601.739502	8.166234
469.047913	962.347534	20725.105469	2548.859375	8.027785
469.403625	940.879272	20624.089844	2548.972656	8.169873
469.759247	961.104675	20157.777344	2513.041504	8.084405
470.114838	938.280457	20184.777344	2501.741943	8.123356
470.470459	946.980835	20097.775391	2517.674072	8.201713
470.825958	945.737915	19836.880859	2478.353027	8.112877
471.181488	975.567566	19867.048828	2485.923340	7.994904
471.536926	978.053406	19877.781250	2488.635254	7.992611
471.892365	948.110718	20095.066406	2511.233398	8.163818
472.247742	961.443665	20069.189453	2529.311768	8.205406
472.603058	970.821960	20208.171875	2531.458984	8.112536
472.958374	977.714539	20499.800781	2561.966553	8.115178
473.313629	956.697876	20785.781250	2574.395508	8.158207
473.668884	970.935059	20968.714844	2613.377686	8.213125
474.024048	940.088257	21425.988281	2618.349121	8.192273
474.379211	951.161316	21498.527344	2641.173584	8.224958
474.734314	942.461121	21362.714844	2660.156006	8.411721
475.089417	939.184387	21377.628906	2635.636719	8.300301
475.444458	954.777222	21467.230469	2641.512451	8.222981
475.799438	937.715515	21440.117188	2643.658936	8.320700
476.154388	934.212708	21681.802734	2668.743408	8.360155
476.509308	955.229004	22090.607422	2732.809570	8.410450
476.864197	966.641235	22209.359375	2746.594482	8.379122
477.219025	956.697937	22574.662109	2780.152832	8.434905
477.573822	945.398804	23162.781250	2815.632080	8.417883
477.928619	936.133606	23544.125000	2864.444824	8.529334
478.283325	958.392883	23762.199219	2876.195557	8.410011
478.638000	946.528809	24242.751953	2948.849121	8.595043
478.992676	952.291321	24497.097656	2952.125488	8.493738
479.347260	1007.205078	25049.962891	3082.065918	8.629879
479.701843	964.946411	25196.849609	3044.552734	8.582102
480.056366	949.918457	25629.949219	3100.709473	8.714702
480.410858	981.443237	26296.031250	3163.532715	8.619889
480.765320	979.296387	26897.712891	3243.417480	8.735569
481.119751	943.591003	27471.822266	3267.823730	8.761355
481.474091	966.076294	28542.636719	3390.306152	8.790908
481.828430	956.359070	29719.675781	3483.750000	8.786855
482.182709	969.240112	31304.371094	3662.615723	8.878734
482.536987	947.545776	33105.347656	3774.476563	8.790808
482.891174	959.183777	35584.832031	4057.520752	8.948098
483.245361	958.392944	38864.289063	4340.112305	8.921354
483.599518	962.347534	43165.417969	4795.467285	9.082561
483.953644	961.895691	47441.132813	5219.524414	9.160281
484.307678	955.568176	50840.925781	5639.738281	9.389869
484.661713	956.811035	52736.468750	5921.200195	9.587528
485.015686	956.698059	53778.917969	6079.727539	9.698626
485.369659	963.477539	53526.730469	6081.534668	9.736949
485.723572	947.997681	52204.847656	5932.160156	9.723895
486.077423	946.754761	49882.085938	5635.558594	9.581633
486.431274	952.630371	47426.324219	5424.490234	9.622346
486.785034	954.099243	45941.390625	5257.149414	9.565035
487.138794	947.884644	45286.042969	5193.647949	9.575867
487.492523	978.166382	45642.988281	5290.143555	9.654079
487.846191	947.432800	46403.636719	5380.875488	9.753219
488.199829	958.731812	47120.343750	5486.748535	9.809052
488.553436	962.686646	47514.230469	5574.542969	9.906989
488.906982	959.409790	47365.195313	5595.106934	9.989481
489.260529	961.217773	46385.335938	5468.217773	9.922042
489.613983	959.522827	45168.871094	5393.078613	10.028548
489.967438	973.307800	43374.000000	5244.947754	10.074459
490.320831	960.313782	42093.699219	5081.335938	10.018679
490.674194	986.866821	41002.195313	5032.071289	10.109138
491.027527	956.698059	40920.054688	5017.495117	10.161302
491.380798	942.009155	41422.757813	5073.764648	10.206717
491.734070	967.545105	42819.664063	5237.376465	10.202188
492.087250	953.421265	43607.894531	5339.407715	10.282594
492.440430	957.263000	44059.632813	5425.393555	10.366322
492.793549	937.941589	43800.429688	5419.066406	10.454655
493.146637	963.251465	43270.843750	5386.638184	10.455302
493.499695	952.404419	41524.105469	5195.569824	10.458437
493.852692	968.562195	39076.039063	4943.485840	10.430823
494.205658	952.630493	36799.265625	4709.254883	10.479712
494.558594	978.166382	35063.257813	4534.909180	10.434893
494.911499	957.036926	33383.304688	4401.353027	10.621994
495.264374	942.574219	32157.572266	4239.436523	10.561790
495.617188	975.002808	31383.019531	4222.487793	10.679699
495.969940	955.003235	30913.197266	4121.360840	10.569254
496.322693	943.703918	30728.119141	4100.118652	10.597538
496.675385	958.844727	30821.900391	4134.580566	10.634330
497.028015	968.901001	30929.808594	4147.122559	10.607895
497.380676	954.212219	31045.062500	4142.151367	10.594380
497.733246	953.873230	30997.156250	4141.246582	10.609271
498.085785	1146.184570	31224.718750	4342.258789	10.625764
498.438263	959.409851	30905.628906	4146.670410	10.643282
498.790710	961.443665	30637.837891	4109.496582	10.607936
499.143158	972.742798	30333.890625	4077.632324	10.574823
499.495544	937.376343	29967.009766	3992.889404	10.525497
499.847870	950.709473	29433.578125	3937.750000	10.487147
500.200165	957.714966	29048.162109	3861.367676	10.336798
500.552429	957.488953	28556.537109	3870.180420	10.553594
500.904663	953.421204	28137.000000	3776.849609	10.386522
501.256866	972.742676	27986.269531	3773.573486	10.368253
501.609009	964.494507	27521.425781	3694.705078	10.280595
501.961090	951.161499	27261.542969	3675.158203	10.353315
502.313171	960.539734	27276.228516	3634.367676	10.160584
502.665253	950.709595	27067.650391	3637.644531	10.288093
503.017181	951.274414	26887.541016	3610.978516	10.254769
503.369110	928.563171	26865.621094	3588.154785	10.254022
503.721069	979.183289	26939.177734	3599.001465	10.091751
504.072937	963.025574	26989.912109	3582.617676	10.064946
504.424774	955.342102	26970.253906	3583.408691	10.102155
504.776520	945.737915	26978.390625	3571.883301	10.087891
505.128265	947.997742	26960.646484	3544.652344	9.982277
505.480042	947.997742	27122.902344	3568.042236	10.009757
505.831665	960.652710	26920.988281	3555.500000	9.995430
506.183289	950.935425	26781.667969	3543.975098	10.038583
506.534882	969.466003	26862.458984	3552.448730	9.975605
506.886505	945.511841	26631.619141	3534.821777	10.080585
507.237946	947.545715	26610.828125	3535.386719	10.083827
507.589417	943.139160	26637.494141	3514.709717	10.008309
507.940857	958.844849	26563.593750	3544.200684	10.097174
508.292297	957.488892	26682.916016	3521.263184	9.965916
508.643616	952.969360	26924.828125	3550.302002	10.000565
508.994904	949.918579	27103.244141	3589.171143	10.091460
509.346191	972.629761	27334.759766	3625.102295	10.061678
509.697479	962.460571	27390.015625	3609.283691	10.015392
510.048645	997.148804	27644.808594	3684.535889	10.084890
510.399780	970.596069	27683.453125	3676.400879	10.129222
510.750916	963.025513	27990.671875	3733.913330	10.252049
511.102051	960.313843	27982.878906	3733.122314	10.261086
511.453033	1008.335083	28217.113281	3788.939941	10.219515
511.804016	966.528198	28287.394531	3823.063721	10.455508
512.154968	940.314331	28474.166016	3831.085938	10.498973
512.505920	959.635742	28749.527344	3892.327393	10.553088
512.856750	963.138489	28683.765625	3918.992676	10.663013
513.207581	963.251648	28887.146484	3960.008545	10.731873
513.558411	962.121582	28898.562500	3990.516846	10.840304
513.909180	973.307922	28771.447266	4006.222168	10.910494
514.259888	963.816406	28819.240234	4030.402832	11.008938
514.610535	956.697937	28638.339844	4053.114014	11.185810
514.961182	943.365051	28481.621094	4082.039551	11.397507
515.311829	954.212097	28410.437500	4076.164063	11.370652
515.662354	955.567993	28513.037109	4131.190430	11.523637
516.012878	954.325195	28596.990234	4189.607422	11.703945
516.363281	933.421875	28715.855469	4229.945313	11.865496
516.713745	951.500366	28903.988281	4265.651367	11.856372
517.064209	950.144653	29331.208984	4389.714844	12.119244
517.414490	945.850952	29764.527344	4476.944336	12.252795
517.764832	948.336548	30423.042969	4609.596191	12.421700
518.115173	950.370483	31122.574219	4736.259766	12.547606
518.465393	955.003113	31990.458984	4927.215332	12.798949
518.815552	945.059937	32790.777344	5125.401367	13.126856
519.165710	975.454468	33280.929688	5215.907227	13.126112
519.515869	955.003296	33210.761719	5258.845215	13.342864
519.865967	956.245972	33593.921875	5398.163086	13.609783
520.216003	956.811035	33139.472656	5377.260254	13.735499
520.565918	968.223022	32688.177734	5400.648438	13.973618
520.915955	953.534302	32274.972656	5402.569824	14.204443
521.265869	960.087769	31683.796875	5388.446289	14.413489
521.615723	963.251465	31382.902344	5463.359863	14.793426
521.965576	1008.109070	31162.683594	5517.368652	14.953816
522.315369	952.517395	30819.074219	5506.522461	15.247840
522.665161	942.461121	30847.324219	5578.045410	15.501105
523.014832	940.653198	30950.488281	5722.222656	15.933340
523.364502	950.144531	31150.593750	5833.632324	16.170248
523.714172	961.895630	31240.083984	5900.635742	16.311214
524.063782	970.144043	31670.468750	6114.077148	16.755306
524.413330	946.076782	32247.972656	6275.315430	17.025290
524.762817	954.777222	32970.429688	6504.235840	17.333580
525.112366	950.822571	33842.054688	6788.635254	17.748842
525.461792	955.568054	35034.890625	7117.666504	18.081635
525.811157	966.641235	36072.042969	7390.765625	18.299532
526.160522	957.149902	37282.070313	7764.880371	18.741211
526.509827	963.477539	38267.921875	8072.217285	19.056013
526.859131	938.619446	39457.382813	8452.998047	19.508360
527.208313	953.082336	40903.222656	8850.840820	19.769037
527.557495	959.409790	42155.390625	9281.790039	20.201921
527.906738	947.658691	44086.867188	9825.956055	20.580576
528.255859	947.771790	46767.695313	10654.522461	21.184565
528.604919	959.635925	49593.156250	11583.763672	21.845280
528.953918	945.511841	51799.761719	12438.880859	22.600607
529.302917	956.811157	53005.394531	13023.724609	23.183943
529.651917	991.725403	53731.925781	13477.046875	23.673254
530.000793	956.133118	53393.511719	13484.390625	23.891846
530.349609	969.692017	52210.039063	13282.250000	24.029028
530.698547	975.115723	50100.375000	12744.185547	23.957270
531.047302	983.138000	47163.957031	12076.969727	24.022596
531.396057	954.099243	44752.273438	11651.784180	24.424955
531.744751	951.274414	42749.726563	11265.579102	24.676283
532.093445	949.240601	41547.722656	11093.494141	24.986782
532.442139	972.516785	40877.125000	11153.377930	25.512997
532.790710	964.494324	40832.937500	11372.696289	26.106369
533.139160	937.602417	41959.808594	11778.221680	26.426222
533.487732	952.856262	42707.234375	12190.865234	26.914564
533.836243	951.161438	43355.585938	12595.712891	27.460699
534.184631	946.415710	43596.480469	12754.240234	27.685360
534.533020	953.308289	43568.570313	12900.903320	28.035954
534.881348	946.302856	42593.117188	12814.578125	28.497440
535.229736	964.494446	41422.976563	12600.912109	28.761381
535.577942	969.353027	39897.480469	12282.954102	29.062794
535.926086	982.686035	38711.867188	12088.947266	29.436796
536.274353	952.856323	38155.039063	12063.976563	29.866850
536.622498	974.776672	37817.308594	12120.698242	30.252867
536.970642	957.488953	37766.238281	12217.306641	30.590055
537.318665	935.681519	37596.976563	12327.020508	31.071838
537.666687	944.946960	37306.820313	12331.426758	31.314335
538.014709	953.647156	36949.648438	12389.618164	31.770115
538.362610	943.591125	36242.441406	12204.537109	31.901735
538.710510	956.810913	35548.445313	12173.916016	32.427223
539.058411	961.330688	34723.265625	11994.939453	32.680618
539.406250	956.472046	34345.988281	12004.430664	33.088108
539.753967	960.313782	34301.476563	12060.249023	33.291985
540.101746	968.336121	34497.398438	12311.540039	33.830959
540.449463	951.387512	35578.503906	12696.841797	33.919815
540.797119	998.165894	36877.671875	13387.896484	34.531494
541.144714	949.353699	38928.132813	14190.587891	34.864826
541.492249	962.234558	40738.929688	14994.971680	35.278790
541.839844	961.104675	42496.281250	15814.162109	35.760189
542.187378	958.957886	43361.234375	16263.638672	36.094006
542.534790	942.574097	43591.398438	16432.902344	36.320644
542.882202	951.387512	43519.300781	16507.023438	36.543102
543.229553	948.336731	42402.046875	16126.017578	36.613564
543.576965	949.579590	40825.367188	15627.498047	36.809097
543.924194	950.257507	39347.777344	15229.656250	37.188335
544.271423	946.754761	37670.871094	14624.924805	37.245743
544.618652	948.562683	36318.820313	14174.429688	37.392624
544.965881	978.392395	34997.500000	13768.791992	37.597691
545.312988	945.285828	33940.687500	13410.043945	37.777256
545.660034	992.855286	32979.136719	13195.359375	38.149181
546.007141	974.889648	32279.605469	12970.620117	38.319244
546.354126	944.042969	31827.521484	12825.990234	38.473476
546.701111	958.732056	31658.712891	12820.228516	38.636818
547.048035	940.427246	31600.527344	12883.275391	38.952412
547.394836	942.913086	31362.453125	12817.290039	39.035362
547.741699	954.777161	31027.542969	12817.064453	39.445282
548.088562	960.426758	30631.285156	12673.677734	39.477291
548.435303	954.551270	30109.150391	12485.885742	39.552364
548.781921	960.539856	29157.083984	12224.538086	39.948151
549.128662	961.443665	28389.425781	11890.649414	39.846920
549.475342	955.003113	27574.302734	11637.773438	40.131676
549.821899	957.036987	26781.781250	11355.408203	40.265148
550.168457	996.018921	26222.136719	11149.423828	40.249577
550.515015	986.075684	25530.740234	10948.751953	40.589985
550.861511	974.776733	25116.519531	10784.236328	40.632774
551.207886	955.342285	24858.894531	10733.162109	40.905300
551.554260	988.109680	24549.978516	10694.294922	41.194462
551.900635	965.511353	24573.136719	10673.957031	41.124191
552.247009	953.421204	24501.617188	10671.020508	41.266853
552.593262	952.856262	24418.226563	10691.017578	41.500137
552.939392	950.709473	24743.980469	10820.281250	41.480518
553.285645	956.246094	24691.894531	10782.879883	41.400318
553.631775	963.477661	24608.394531	10833.613281	41.743164
553.977905	961.782593	24557.660156	10809.208008	41.733673
554.323975	948.788574	24398.796875	10822.540039	42.105537
554.669983	959.635864	24331.226563	10778.587891	42.012341
555.015991	933.195801	23925.248047	10644.239258	42.236519
555.361877	941.783081	23588.644531	10543.114258	42.395859
555.707825	955.229126	23158.375000	10395.884766	42.519447
556.053711	949.127747	23000.638672	10328.768555	42.535137
556.399536	953.308289	22729.121094	10251.933594	42.701622
556.745239	944.833984	22627.427734	10216.342773	42.760147
557.091003	941.670227	22393.646484	10100.978516	42.696804
557.436707	949.353516	22292.181641	10094.988281	42.851089
557.782410	945.511841	22239.980469	10083.352539	42.911804
558.127991	954.099304	21982.357422	10018.494141	43.105782
558.473511	978.618347	21932.191406	10051.373047	43.299324
558.819092	953.873230	21850.839844	9955.218750	43.074890
559.164612	956.923950	21730.277344	9884.826172	42.977665
559.510010	963.251587	21646.324219	9958.156250	43.489208
559.855408	946.302734	21609.939453	9950.248047	43.573864
560.200806	961.217590	21506.105469	9902.225586	43.519379
560.546143	941.331238	21429.716797	9864.826172	43.553921
560.891357	952.065430	21650.166016	10010.583984	43.764973
561.236633	973.194824	21619.433594	9972.506836	43.588146
561.581848	950.483398	21659.771484	10013.182617	43.761517
561.927002	944.268921	21640.673828	10036.798828	43.932899
562.272095	942.235046	21752.199219	10113.520508	44.071602
562.617126	960.765808	21682.595703	10094.086914	44.075844
562.962219	975.228638	21612.087891	10073.521484	44.087585
563.307251	961.443726	21581.917969	10029.228516	43.974667
563.652161	950.596497	21542.259766	10036.572266	44.124535
563.997009	947.319702	21514.689453	10047.646484	44.246433
564.341919	947.206726	21496.609375	10035.668945	44.227379
564.686768	953.534302	21454.919922	10056.232422	44.400406
565.031555	947.432739	21594.916016	10087.757813	44.268475
565.376282	977.375366	21793.550781	10216.679688	44.385216
565.721008	974.550659	21973.998047	10280.294922	44.314232
566.065674	959.635742	22286.082031	10458.820313	44.541809
566.410278	950.370483	22573.984375	10610.568359	44.674301
566.754822	954.777222	22938.494141	10793.275391	44.753571
567.099365	942.009155	23025.498047	10769.661133	44.502266
567.443909	936.811523	23154.417969	10850.335938	44.620129
567.788330	957.150024	22964.255859	10841.749023	44.915485
568.132751	957.940918	22907.984375	10786.155273	44.775379
568.477112	947.206665	22553.082031	10655.764648	44.934803
568.821533	946.641785	22335.347656	10573.958984	45.011223
569.165771	969.127075	22193.878906	10526.276367	45.028320
569.510010	960.878601	22127.892578	10499.723633	45.064671
569.854248	977.262390	22036.033203	10385.376953	44.675514
570.198364	955.455078	21883.042969	10389.669922	45.080276
570.542542	960.087769	22081.679688	10483.115234	45.086693
570.886536	961.330688	22087.894531	10451.927734	44.922573
571.230591	948.562683	22226.306641	10530.005859	45.030354
571.574646	957.375977	22419.410156	10621.754883	45.030113
571.918518	950.370422	22539.861328	10733.955078	45.316425
572.262451	935.229675	22790.021484	10879.263672	45.500477
572.606323	960.991699	22996.910156	10962.310547	45.386440
572.950195	950.596497	23073.740234	11004.118164	45.443455
573.293945	942.800171	23172.160156	11068.070313	45.549088
573.637695	956.472046	22822.560547	10933.159180	45.626305
573.981384	962.008606	22728.441406	10872.934570	45.533073
574.325134	966.641235	22605.505859	10813.048828	45.503345
574.668701	944.042969	22414.890625	10733.389648	45.593666
575.012268	944.269043	22252.070313	10692.939453	45.751648
575.355774	949.353516	22132.410156	10675.085938	45.912792
575.699341	955.342102	22115.687500	10643.448242	45.784256
576.042725	964.042603	21951.062500	10570.230469	45.772041
576.386169	961.782715	21821.685547	10461.419922	45.540176
576.729553	965.285461	21577.849609	10406.732422	45.804333
577.072876	987.770630	21347.458984	10348.087891	45.974758
577.416138	991.499329	20946.566406	10159.166992	45.941555
577.759399	963.816406	20571.775391	9998.719727	46.077736
578.102600	957.036987	20300.484375	9853.865234	45.994015
578.445801	961.669617	19976.875000	9671.158203	45.802757
578.788940	966.867371	19647.052734	9574.888672	46.081028
579.131897	954.325317	19392.597656	9460.541992	46.133484
579.474976	963.816406	19120.964844	9328.001953	46.065525
579.817993	959.409973	18863.005859	9182.583984	45.930294
580.160950	957.375977	18668.210938	9099.535156	45.972755
580.503845	974.098633	18403.923828	8999.310547	46.042988
580.846680	950.257507	18292.966797	8966.431641	46.222157
581.189514	949.127625	18092.406250	8894.455078	46.346603
581.532349	941.896179	17947.437500	8796.491211	46.188446
581.875061	959.183777	17848.230469	8774.005859	46.271542
582.217773	955.567993	17766.988281	8745.082031	46.334660
582.560425	994.889038	17781.570313	8751.973633	46.209755
582.903076	975.228638	17594.791016	8652.314453	46.193069
583.245667	947.432617	17492.875000	8603.955078	46.275723
583.588135	948.110718	17565.187500	8572.204102	45.881077
583.930664	953.421265	17374.230469	8538.533203	46.192074
584.273071	945.398804	17288.808594	8517.289063	46.329929
584.615479	967.884155	17216.609375	8519.889648	46.477524
584.957825	951.274536	17185.650391	8460.002930	46.252029
585.300232	951.048462	17100.792969	8456.049805	46.471333
585.642517	957.715027	16913.453125	8413.000000	46.724789
585.984680	965.285339	17025.203125	8428.591797	46.471638
586.326843	970.708984	16930.177734	8378.988281	46.419334
586.669067	988.787720	16885.769531	8368.480469	46.421974
587.011230	979.861328	16864.189453	8346.787109	46.378578
587.353271	954.890137	16833.908203	8391.191406	46.830990
587.695251	950.822388	16822.042969	8360.797852	46.688126
588.037231	968.336121	16878.539063	8356.728516	46.438080
588.379211	954.212219	16808.482422	8371.080078	46.781513
588.721069	966.641113	16888.144531	8408.139648	46.738667
589.062927	948.788696	16998.308594	8461.361328	46.808708
589.404785	995.341125	17082.828125	8446.784180	46.318253
589.746582	943.139282	17053.789063	8527.006836	47.073631
590.088257	956.246094	17174.011719	8548.250000	46.812885
590.429932	972.290710	17195.255859	8572.542969	46.848728
590.771606	949.014465	17184.068359	8524.861328	46.663513
591.113220	952.065308	17181.128906	8559.210938	46.873596
591.454773	1007.431152	17166.214844	8562.147461	46.753002
591.796265	954.777222	17047.460938	8534.802734	47.102306
592.137817	960.652832	16909.613281	8462.828125	47.038647
592.479248	958.505859	16799.447266	8377.746094	46.835854
592.820618	952.178345	16793.117188	8366.672852	46.805904
593.161926	967.997253	16651.765625	8348.029297	47.055222
593.503296	961.104797	16738.769531	8351.532227	46.841072
593.844604	953.082336	16767.359375	8406.332031	47.129879
594.185791	952.291321	16796.619141	8383.283203	46.900013
594.526917	952.856262	16906.675781	8434.580078	46.896130
594.868103	955.794067	16959.781250	8481.133789	47.021656
595.209229	955.003235	17011.642578	8547.119141	47.283340
595.550232	961.443665	17248.134766	8628.134766	47.073349
595.891235	951.387390	17383.271484	8682.483398	47.049358
596.232178	963.477539	17583.716797	8842.366211	47.405388
596.573181	971.951965	17766.990234	8900.330078	47.206665
596.914063	946.754761	18091.048828	8997.278320	46.957447
597.254883	958.279968	18262.910156	9168.234375	47.443684
597.595703	962.008606	18366.070313	9217.837891	47.436218
597.936462	958.844849	18404.828125	9257.044922	47.565105
598.277161	947.545715	18252.628906	9169.928711	47.514259
598.617798	958.957703	18019.867188	9021.119141	47.255169
598.958435	958.279785	17681.343750	8898.748047	47.482136
599.299072	971.951843	17220.228516	8646.665039	47.234016
599.639587	969.466003	16778.318359	8454.353516	47.346180
599.980103	977.827515	16557.078125	8335.148438	47.225124
600.320557	970.370117	16285.333984	8243.399414	47.489693
600.661072	950.822449	16017.432617	8088.826660	47.376312
601.001404	950.144653	15926.698242	8043.969727	47.366207
601.341675	968.110168	15752.693359	7970.751465	47.364483
601.681946	957.715027	15723.767578	7957.417969	47.404022
602.022278	959.974731	15825.120117	7993.010742	47.312260
602.362427	943.929993	15776.987305	7988.829590	47.494587
602.702576	957.941040	15932.689453	8052.217773	47.374931
603.042725	945.963867	16154.830078	8198.315430	47.685024
603.382813	964.833496	16380.812500	8294.020508	47.542793
603.722839	960.878723	16769.501953	8449.381836	47.369736
604.062805	973.420776	17015.822266	8627.004883	47.708469
604.402771	1019.295288	17366.775391	8811.068359	47.663448
604.742737	962.912415	17757.160156	8888.128906	47.190063
605.082581	952.856323	17871.511719	8995.922852	47.539627
605.422363	959.296875	18086.531250	9124.279297	47.672508
605.762146	950.822571	18012.292969	9085.523438	47.678776
606.101929	952.856323	17944.501953	9008.802734	47.411217
606.441589	967.432251	17713.093750	8966.319336	47.766922
606.781189	967.093262	17372.425781	8795.134766	47.716446
607.120850	973.985718	16990.175781	8618.417969	47.729404
607.460388	961.330688	16619.562500	8437.404297	47.745327
607.799927	968.901062	16371.320313	8377.859375	48.102566
608.139404	960.878723	16153.135742	8196.054688	47.624100
608.478821	967.545105	16029.521484	8172.778809	47.837238
608.818298	978.505493	16024.888672	8181.931152	47.874802
609.157593	965.963257	16173.698242	8213.342773	47.655876
609.496887	971.725952	16246.353516	8277.523438	47.829624
609.836182	960.426758	16451.773438	8378.650391	47.886242
610.175415	948.336731	16538.548828	8440.230469	48.055111
610.514526	981.895020	16569.507813	8477.968750	48.089939
610.853699	980.200073	16557.302734	8421.926758	47.773499
611.192688	951.726379	16381.604492	8380.798828	48.147316
611.531799	946.076965	16212.908203	8233.228516	47.731918
611.870850	980.539246	15932.122070	8166.225586	48.059704
612.209778	962.912415	15644.901367	8008.151367	47.985588
612.548645	954.325195	15333.270508	7858.324219	48.014641
612.887573	960.539673	15066.948242	7681.041504	47.641483
613.226440	946.415710	14804.919922	7593.584961	47.964554
613.565186	952.065430	14619.051758	7513.588379	48.010021
613.903931	963.025574	14430.244141	7415.059570	47.909180
614.242676	964.042480	14343.463867	7388.959473	48.020885
614.581360	973.533691	14227.421875	7361.727539	48.198639
614.919983	949.692566	14091.494141	7277.436035	48.149742
615.258484	982.460083	13966.752930	7244.215820	48.225620
615.597046	955.455078	13982.117188	7175.291504	47.746971
615.935547	945.850891	13820.765625	7159.924805	48.264969
616.273987	954.777222	13819.862305	7170.432617	48.314140
616.612366	996.923035	13784.609375	7145.010254	48.078182
616.950806	965.963257	13813.309570	7141.620117	48.069511
617.289124	979.296387	13785.400391	7155.630371	48.229610
617.627380	975.680542	13741.559570	7119.812500	48.129330
617.965515	956.698059	13814.778320	7167.608398	48.303558
618.303772	969.917969	13885.059570	7162.184570	47.945789
618.641968	956.810913	13780.426758	7115.746094	48.028069
618.980042	948.788696	13770.373047	7124.445313	48.166100
619.318054	943.703979	13756.474609	7109.191406	48.119862
619.656128	947.884644	13747.098633	7126.252930	48.271465
619.994080	968.674988	13679.979492	7074.503906	48.034637
620.331970	976.358582	13688.001953	7079.362305	48.011131
620.669861	963.590515	13565.630859	7031.680664	48.151649
621.007751	946.980591	13488.911133	6968.291504	48.009441
621.345581	952.065308	13498.513672	7052.244629	48.620766
621.683289	950.144531	13500.776367	6993.713867	48.153507
622.020996	946.754761	13428.573242	6947.727539	48.077713
622.358704	937.263489	13379.309570	6934.958496	48.205051
622.696350	959.522766	13251.742188	6893.830566	48.276939
623.033875	980.765320	13273.662109	6912.360840	48.252220
623.371460	955.568176	13258.748047	6895.186035	48.277096
623.708984	974.663696	13263.833008	6871.683594	47.985508
624.046448	965.737305	13255.809570	6893.830566	48.234814
624.383789	960.878723	13231.065430	6897.333008	48.381123
624.721191	953.534180	13252.307617	6913.151367	48.457005
625.058533	933.421753	13235.583984	6896.993652	48.475803
625.395813	957.827942	13303.151367	6914.620117	48.251404
625.733032	965.511353	13447.895508	6973.714844	48.133465
626.070190	962.460632	13516.254883	7012.923340	48.196289
626.407410	985.284790	13668.115234	7114.841309	48.329567
626.744507	961.443726	13706.192383	7142.071777	48.495487
627.081543	952.291504	13862.122070	7150.659180	48.012775
627.418518	964.494507	13991.833984	7246.701660	48.223251
627.755554	952.517273	13995.904297	7235.290527	48.168266
628.092529	963.477356	14034.208008	7265.458496	48.214451
628.429382	958.166870	13904.041992	7240.261719	48.525841
628.766174	974.663574	13773.421875	7207.494629	48.698719
629.103027	967.206360	13723.593750	7110.999023	48.162479
629.439819	954.890259	13500.887695	7009.532715	48.259556
629.776489	967.432251	13333.434570	6951.342773	48.390018
630.113159	961.669739	13250.498047	6906.485352	48.375771
630.449829	973.081848	13023.952148	6782.646973	48.208675
630.786377	953.986328	12910.958984	6760.161133	48.558903
631.122925	996.132019	12868.927734	6728.298340	48.279839
631.459412	995.002136	12716.728516	6655.532227	48.290924
631.795898	960.313782	12628.931641	6593.499023	48.276367
632.132324	957.601929	12505.886719	6548.189453	48.410542
632.468689	963.816528	12413.008789	6515.647461	48.491028
632.804993	940.201172	12315.947266	6482.993164	48.724648
633.141296	933.986694	12252.558594	6398.023926	48.274967
633.477539	959.409851	12217.643555	6405.933594	48.378139
633.813721	944.156067	12171.883789	6390.001465	48.503540
634.149841	939.410278	12163.748047	6388.645508	48.548389
634.485962	966.189270	12126.685547	6391.809570	48.614506
634.822083	975.680542	12153.579102	6385.820801	48.400333
635.158020	975.002625	12077.876953	6369.775879	48.588982
635.494019	963.364563	12039.570313	6300.060547	48.181622
635.829956	966.302246	11847.711914	6272.038086	48.759636
636.165894	956.924011	11746.697266	6144.358398	48.077328
636.501709	977.036499	11671.669922	6217.237793	48.998417
636.837463	949.240540	11599.130859	6055.659668	47.948090
637.173279	977.262573	11438.908203	6074.754883	48.725529
637.509033	962.347656	11375.857422	6008.881348	48.461411
637.844666	948.788452	11251.456055	5954.194336	48.583588
638.180237	981.782227	11187.163086	5987.864746	49.053364
638.515869	940.653198	11078.579102	5847.416992	48.400074
638.851440	948.562622	10952.820313	5849.224609	48.985764
639.186890	962.912476	10867.962891	5836.230957	49.200336
639.522339	973.646667	10805.478516	5745.046387	48.530121
639.857727	947.658813	10790.562500	5753.182129	48.822216
640.193176	985.284790	10633.053711	5705.612305	48.926624
640.528442	948.449585	10603.675781	5673.071289	48.933308
640.863708	950.709473	10491.815430	5635.106445	49.097004
641.198914	950.596558	10451.364258	5572.622070	48.648968
641.534180	945.511841	10428.990234	5573.638672	48.801998
641.869263	932.743835	10347.636719	5536.351563	48.897083
642.204346	961.782593	10300.859375	5504.487305	48.641899
642.539368	950.031555	10197.472656	5450.252930	48.664501
642.874390	968.788086	10190.013672	5473.642090	48.853092
643.209412	932.065796	10105.498047	5401.214355	48.718388
643.544312	974.550781	10075.893555	5416.016113	48.800110
643.879150	966.076294	10078.039063	5403.473633	48.698589
644.213989	959.974792	9987.533203	5367.881836	48.827236
644.548828	965.511353	9928.779297	5341.893555	48.825748
644.883545	963.364563	9974.766602	5326.526367	48.418232
645.218262	946.076843	9878.837891	5323.250000	49.001350
645.552856	962.347656	9921.886719	5343.361816	48.897762
645.887573	982.121094	9879.063477	5335.565430	48.931915
646.222107	947.093750	9902.791016	5330.029785	48.940197
646.556580	954.438171	9905.616211	5323.137207	48.805859
646.891113	949.127625	9883.921875	5301.555664	48.713245
647.225586	956.472046	9920.192383	5317.487305	48.651840
647.559937	951.613281	9926.970703	5310.708008	48.567368
647.894226	943.478027	9913.638672	5328.560547	48.885220
648.228577	985.284790	9961.545898	5366.186523	48.805420
648.562927	951.952454	9895.898438	5292.968262	48.535797
648.897095	969.805054	9870.474609	5327.995117	48.964741
649.231262	930.935913	9851.266602	5263.251953	48.566761
649.565430	985.171875	9841.662109	5297.826660	48.694851
649.899475	954.551147	9830.927734	5274.211426	48.664677
650.233521	988.335571	9783.923828	5263.477051	48.605526
650.567505	952.178345	9746.295898	5217.376953	48.500591
650.901428	958.054016	9749.914063	5236.698730	48.665974
651.235413	957.263000	9724.942383	5210.937012	48.515388
651.569275	945.172852	9739.517578	5227.094727	48.689491
651.903015	982.798950	9692.287109	5253.308105	49.032837
652.236816	931.275024	9651.157227	5201.897461	48.975693
652.570618	956.924011	9616.583008	5198.507813	48.980957
652.904297	983.364136	9638.502930	5210.145508	48.835510
653.237915	955.229126	9548.450195	5145.401367	48.761372
653.571533	942.348145	9542.348633	5139.073730	48.799133
653.905090	963.477661	9448.677734	5115.797852	48.936031
654.238586	938.280457	9400.657227	5092.973633	49.096058
654.572021	958.618835	9310.037109	5035.687500	48.818878
654.905457	952.404480	9366.080078	5051.053223	48.714130
655.238892	968.449097	9311.845703	5030.941406	48.691109
655.572144	967.771118	9247.666016	5017.946777	48.915791
655.905457	959.070984	9147.104492	4986.422363	49.185818
656.238708	962.008789	9161.340820	4977.835449	48.977486
656.571960	960.539734	9203.487305	4976.253906	48.716969
656.905090	959.296875	9182.470703	4992.297852	49.044334
657.238159	956.133118	9164.842773	4944.615723	48.588421
657.571289	1000.425659	9257.720703	4994.445313	48.369587
657.904358	955.907043	9216.479492	4997.157227	48.922157
658.237305	954.551392	9286.762695	5036.816895	48.993786
658.570190	936.585571	9465.740234	5058.171875	48.323505
658.903076	945.285950	9523.704102	5127.096680	48.748039
659.236023	957.036987	9680.083984	5202.687988	48.671650
659.568787	944.833862	9821.436523	5274.098633	48.771641
659.901428	962.686523	9944.371094	5323.589355	48.553284
660.234192	956.924011	10027.759766	5382.909180	48.793579
660.566895	956.246094	10003.692383	5365.960449	48.739880
660.899536	966.641296	10044.822266	5388.106934	48.704315
661.232056	959.974792	9900.416992	5324.831543	48.821487
661.564636	940.088257	9746.072266	5249.580566	48.938221
661.897156	960.765747	9637.036133	5184.609863	48.682716
662.229553	943.026062	9459.865234	5115.571777	48.991722
662.561951	962.799500	9293.314453	5005.291992	48.526321
662.894287	980.991211	9232.185547	4992.072754	48.612133
663.226685	958.280090	9076.032227	4910.266602	48.683262
663.558899	981.104187	8971.064453	4879.419434	48.790169
663.891052	953.647278	8839.993164	4812.980469	48.936901
664.223328	977.488403	8773.441406	4760.213867	48.521656
664.555420	967.432251	8639.321289	4714.791504	48.845325
664.887512	949.805542	8574.349609	4673.549316	48.838902
665.219543	968.788208	8517.742188	4649.143555	48.753185
665.551575	968.675110	8500.680664	4632.195313	48.639374
665.883545	956.924011	8406.785156	4583.043457	48.673649
666.215454	948.223633	8395.937500	4605.980469	49.112476
666.547302	944.381958	8329.271484	4566.659668	49.049858
666.879150	1003.024536	8386.220703	4555.134277	48.110733
667.210938	959.748718	8328.707031	4557.959473	48.829296
667.542664	971.838745	8317.069336	4535.022461	48.510166
667.874268	959.070801	8312.324219	4543.043945	48.739964
668.205994	954.777161	8247.466797	4541.575195	49.183475
668.537537	972.855835	8294.019531	4510.616211	48.322376
668.869080	963.138489	8315.487305	4537.394531	48.613800
669.200562	954.777161	8206.337891	4490.729492	48.761261
669.532043	949.014526	8243.060547	4520.106934	48.959003
669.863525	967.093262	8247.580078	4529.372559	48.929134
670.194824	958.166870	8233.004883	4533.440430	49.145748
670.526184	958.844849	8231.420898	4512.875977	48.868946
670.857483	970.821960	8161.480469	4458.074707	48.496986
671.188660	957.150024	8152.892090	4461.011719	48.693542
671.519897	952.743469	8084.646973	4401.692383	48.359447
671.851013	952.178345	8046.229004	4396.042480	48.545807
672.182129	977.262512	7999.338379	4388.698242	48.581585
672.513184	941.331238	7952.559570	4352.315430	48.650307
672.844238	999.860718	8012.332031	4381.353516	48.221127
673.175171	957.714966	7887.928711	4328.021973	48.632080
673.506104	984.380737	7908.153809	4353.105957	48.654472
673.836975	951.726379	7836.517090	4302.146973	48.664089
674.167786	962.686523	7808.834473	4278.756836	48.437023
674.498596	952.743286	7780.134277	4272.204102	48.619755
674.829407	951.161316	7726.802246	4260.904785	48.847679
675.160034	960.539673	7729.740723	4242.034668	48.476845
675.490723	938.958313	7673.921875	4233.109375	48.911198
675.821289	934.438660	7636.748535	4201.471680	48.744881
676.151917	966.076355	7618.443848	4213.222656	48.811886
676.482422	957.036987	7611.100098	4210.623535	48.896236
676.812927	948.449585	7570.083496	4173.562500	48.705696
677.143311	965.511414	7579.348633	4191.528320	48.776779
677.473694	959.522766	7533.474121	4152.998047	48.577717
677.804016	938.054504	7577.314941	4185.201172	48.908260
678.134338	946.754883	7550.760742	4182.263184	48.993118
678.464539	975.680542	7592.003906	4227.685547	49.151241
678.794800	973.194824	7590.083496	4184.183105	48.527161
679.124878	962.347534	7641.267090	4232.430664	48.961258
679.455078	956.020142	7665.334961	4239.549805	48.939865
679.785095	953.421265	7734.033691	4268.362305	48.888519
680.115173	932.743835	7796.178711	4268.023438	48.594902
680.445129	952.291321	7809.963867	4280.565430	48.533585
680.775024	975.228638	7902.955566	4339.660156	48.564724
681.104919	958.618958	7932.899414	4358.190430	48.744408
681.434814	943.704102	7937.079102	4350.620117	48.716335
681.764526	936.020630	7912.561035	4373.669434	49.274406
682.094360	938.167358	7975.609375	4353.219238	48.526890
682.424011	988.335449	8017.303711	4400.901367	48.550026
682.753723	965.511536	7982.276367	4369.489746	48.512077
683.083313	969.353027	7921.260742	4318.643555	48.178005
683.412903	965.059448	7917.306152	4332.767090	48.440563
683.742432	944.382019	7791.660156	4292.881348	48.902630
684.071899	955.455200	7729.289063	4285.311523	49.157635
684.401306	968.901062	7620.025879	4237.741211	49.147175
684.730713	1559.507080	7786.349121	4384.291504	45.364639
685.060059	1033.193115	7439.013184	4149.156738	48.642696
685.389404	978.844360	7368.959473	4112.999512	49.046928
685.718628	968.223022	7241.391602	4045.656250	49.057076
686.047852	950.257507	7247.379883	4037.972656	49.033745
686.376953	993.194214	7207.493652	4073.000000	49.559982
686.706116	952.969360	7190.319336	4023.510254	49.228294
687.035156	961.217651	7177.890625	3996.617920	48.826767
687.364197	943.930054	7201.958008	4030.515137	49.322006
687.693176	968.223022	7161.393555	4030.289551	49.442631
688.022156	947.432800	7232.013184	4049.271973	49.356342
688.351013	951.387329	7221.957031	4012.775879	48.821537
688.679871	952.065430	7223.991211	4041.475830	49.257763
689.008606	974.437683	7226.928711	4043.057373	49.078350
689.337402	939.184265	7191.110352	4027.690674	49.400875
689.666138	947.884766	7083.654785	3988.482910	49.555283
689.994751	949.579468	7022.415039	3899.445801	48.574776
690.323364	951.839478	6934.618652	3891.535889	49.135963
690.651917	951.387390	6867.616211	3849.729248	48.989681
690.980469	975.567566	6789.651367	3836.622314	49.209038
691.308960	980.426147	6745.246094	3825.436035	49.351234
691.637451	971.951843	6673.497070	3749.957764	48.723736
691.965759	958.732056	6565.928711	3717.642578	49.203030
692.294128	975.906555	6486.948242	3690.750732	49.261909
692.622437	953.421265	6438.475586	3646.909668	49.105957
692.950684	968.788208	6379.380371	3661.259766	49.762974
693.278870	957.714844	6374.182617	3633.576904	49.402344
693.607117	946.528809	6287.630859	3556.629395	48.868202
693.935120	969.014038	6243.677246	3577.645996	49.455894
694.263245	953.195190	6209.215820	3551.884033	49.442139
694.591248	975.341614	6218.254395	3570.527832	49.498943
694.919250	952.856262	6162.662598	3550.076172	49.852528
695.247192	957.150024	6134.979492	3522.958252	49.553738
695.575073	966.528198	6134.753418	3512.788574	49.267597
695.902893	945.285828	6159.499023	3537.985840	49.723701
696.230774	960.313660	6115.883789	3524.539795	49.737000
696.558411	966.641235	6193.735840	3553.805420	49.495258
696.886169	962.347534	6186.842773	3555.048096	49.625862
697.213806	942.913086	6194.526367	3572.222656	50.066704
697.541443	964.155457	6297.461914	3612.108643	49.649368
697.869019	942.574036	6367.290039	3623.294434	49.416790
698.196533	949.466492	6489.660645	3670.977051	49.123016
698.524048	945.624878	6637.339844	3768.827393	49.601971
698.851501	974.437805	6777.448242	3871.987793	49.931843
699.178772	960.991821	6942.416504	3929.953613	49.636368
699.506226	970.821899	7033.148438	3932.212891	48.849087
699.833435	974.098633	7142.636719	4009.838379	49.213276
700.160767	944.043091	7061.848633	3964.754395	49.375732
700.487915	946.076843	7018.459473	3958.879395	49.614830
700.815063	956.472046	6905.241211	3913.682129	49.711292
701.142151	939.975403	6787.278809	3854.926514	49.851208
701.469238	971.386902	6680.728027	3794.138184	49.440926
701.796265	945.172974	6510.901855	3660.017090	48.777874
702.123230	961.217590	6411.243652	3633.237549	49.027657
702.450134	963.251587	6221.192383	3578.550049	49.739971
702.777039	975.454590	6139.951660	3526.009033	49.386307
703.103882	972.403809	6029.446289	3450.191895	48.996780
703.430664	976.019653	5898.489258	3399.571777	49.234478
703.757385	954.664063	5799.508301	3383.074707	50.123608
704.084106	950.031555	5720.075684	3307.822266	49.429119
704.410767	941.783081	5650.134277	3268.728027	49.421650
704.737366	962.799500	5579.401367	3235.056152	49.219242
705.063904	993.872192	5624.372070	3266.580811	49.081276
705.390442	960.313782	5487.313477	3207.486816	49.639351
705.716919	962.347534	5450.930176	3191.102783	49.653881
706.043396	947.771667	5397.485352	3182.628418	50.224728
706.369690	956.698059	5376.355957	3151.555176	49.661247
706.696106	975.341614	5438.161621	3202.854004	49.912666
707.022278	962.686646	5329.688965	3118.900879	49.375156
707.348633	942.800110	5377.824707	3147.375000	49.708294
707.674805	955.455078	5370.706543	3152.007324	49.749199
708.000916	953.534180	5390.367676	3162.516113	49.787354
708.327026	939.071289	5335.226563	3133.589844	49.919041
708.653076	943.930054	5351.723633	3151.329590	50.079464
708.979065	950.596375	5362.909180	3153.024658	49.915504
709.305054	951.274414	5363.587891	3133.703125	49.462231
709.630920	956.133118	5385.508789	3154.945313	49.641586
709.956787	954.212219	5419.971191	3186.808594	49.993664
710.282593	931.839966	5451.608398	3189.181641	49.943748
710.608459	953.760254	5461.890625	3192.119629	49.651611
710.934082	943.365051	5497.595215	3236.977051	50.362236
711.259827	942.461060	5626.857910	3272.117188	49.732254
711.585449	954.325195	5625.502441	3257.654541	49.309399
711.911072	966.528320	5719.170898	3309.743652	49.303421
712.236572	944.381958	5706.290039	3311.438232	49.708145
712.562073	967.997070	5687.872559	3289.969971	49.195641
712.887512	959.296753	5675.331543	3294.037842	49.506447
713.213013	940.201355	5618.270508	3280.479004	50.026569
713.538330	954.551147	5608.553711	3258.784668	49.510792
713.863647	947.545715	5546.634277	3218.333496	49.374737
714.188904	962.347656	5471.495117	3203.757568	49.708065
714.514099	963.477539	5424.264648	3161.724854	49.279358
714.839294	965.285339	5378.728516	3170.425293	49.964161
715.164490	968.562012	5367.316895	3142.855713	49.429752
715.489502	991.499390	5343.475098	3157.883057	49.779320
715.814575	971.612976	5287.544434	3134.041748	50.103405
716.139526	973.759766	5296.131348	3134.041748	49.979092
716.464539	948.901672	5261.782227	3103.082275	49.947609
716.789368	944.381836	5246.528320	3080.257813	49.646751
717.114258	966.754395	5218.506836	3108.279785	50.368065
717.439026	976.132507	5195.569336	3050.202393	49.155132
717.763794	946.302734	5158.282715	3042.632080	49.770638
718.088440	951.613403	5107.210449	2995.514404	49.184292
718.413208	944.720886	5033.879883	2974.385010	49.635246
718.737793	964.607544	4990.942871	2960.713379	49.576244
719.062378	974.324707	4933.090820	2966.814941	50.331093
719.386841	959.748718	4866.651367	2903.426514	49.749840
719.711304	959.070679	4813.658203	2869.867920	49.572029
720.035767	956.472046	4776.597656	2846.026855	49.463161
720.360168	958.279785	4755.016602	2848.964355	49.797619
720.684570	964.381470	4684.848633	2796.537109	49.245308
721.008789	967.997070	4688.238770	2812.807617	49.588459
721.333069	967.319214	4645.866211	2786.254395	49.447113
721.657227	954.777222	4557.620117	2752.131104	49.887104
721.981445	955.342163	4543.496094	2734.956543	49.596935
722.305481	969.240112	4548.128906	2741.961914	49.532745
722.629578	945.624817	4500.220703	2701.058838	49.384911
722.953552	946.528687	4477.395996	2701.059082	49.691204
723.277588	952.743469	4475.927246	2696.991455	49.507721
723.601440	950.031555	4391.749023	2675.749268	50.141178
723.925354	929.467102	4460.673340	2696.539551	50.041611
724.249146	978.844421	4442.820801	2714.278809	50.099487
724.572937	965.850403	4453.104004	2697.217285	49.648438
724.896667	958.054016	4411.635254	2681.737305	49.910027
725.220398	948.901733	4417.511230	2660.834229	49.355011
725.543945	945.172974	4388.584961	2686.144043	50.559475
725.867615	948.336731	4396.946289	2687.273926	50.424301
726.191101	968.675110	4428.019043	2694.844482	49.898750
726.514648	981.443176	4447.454102	2698.912354	49.551754
726.838074	979.522278	4442.369629	2701.737305	49.734074
727.161499	947.658691	4478.526367	2701.510986	49.671993
727.484863	980.878235	4530.163086	2757.667480	50.060486
727.808228	990.934387	4520.897461	2739.701904	49.540676
728.131470	963.590515	4556.489746	2757.441650	49.927677
728.454712	956.810913	4582.817383	2784.673096	50.409790
728.777832	945.624817	4605.641602	2769.192871	49.824036
729.101013	945.398804	4556.038086	2775.181152	50.677521
729.424011	962.460632	4601.234863	2783.768799	50.052792
729.747070	964.381470	4632.081055	2776.989014	49.420826
730.070068	962.573547	4585.642090	2754.164795	49.449554
730.393005	950.144531	4569.258789	2773.825439	50.390255
730.715881	942.348022	4558.750488	2740.832031	49.731304
731.038757	940.314331	4539.654785	2740.040527	50.001556
731.361572	945.172974	4563.495117	2745.012207	49.742371
731.684326	947.771667	4596.037109	2768.176025	49.897804
732.007019	952.743286	4564.852051	2779.926514	50.584942
732.329712	950.935425	4592.083008	2800.717285	50.802170
732.652283	952.065247	4630.952148	2805.350098	50.376240
732.974854	951.726379	4659.200195	2814.841553	50.252956
733.297363	956.359009	4660.103516	2782.977783	49.318161
733.619873	980.200195	4638.974121	2804.446289	49.859493
733.942261	939.071411	4625.641113	2782.525879	50.004601
734.264648	969.466003	4609.031738	2760.718262	49.216099
734.586975	937.037476	4515.587891	2725.352051	49.973156
734.909302	942.574036	4461.238281	2729.532715	50.785145
735.231506	953.195190	4456.266602	2681.624512	49.340397
735.553711	943.477905	4385.195313	2673.149902	50.256073
735.875854	961.217651	4334.349121	2650.438721	50.078720
736.197937	943.930054	4269.152832	2597.219971	49.719677
736.519958	937.602539	4229.832520	2570.214844	49.589863
736.841980	954.325195	4172.319824	2558.351074	49.845512
737.163940	952.969238	4158.534668	2563.661133	50.246735
737.485840	974.889648	4139.552734	2556.769043	49.985714
737.807678	956.471985	4101.700195	2503.662842	49.191689
738.129517	930.370972	4082.604736	2512.814941	50.200714
738.451233	960.426758	4167.122070	2549.311768	49.548985
738.773010	935.568665	4100.344238	2566.485840	51.533424
739.094666	945.173035	4178.308105	2540.837158	49.353462
739.416260	985.171875	4201.697754	2604.677490	50.349529
739.737854	946.528809	4180.567871	2579.367432	50.489143
740.059448	957.714966	4188.929199	2587.729004	50.445866
740.380859	948.788696	4193.223633	2573.491699	50.076607
740.702332	949.014526	4171.415527	2560.384277	50.005253
741.023682	943.591125	4136.953125	2547.616455	50.229988
741.345032	939.071411	4083.960449	2518.239258	50.213783
741.666321	951.726379	4070.740723	2512.589111	50.043461
741.987549	963.251587	4045.430420	2481.064941	49.244820
742.308777	961.443665	4009.386230	2487.844238	50.079704
742.629944	963.590515	3942.607910	2466.375488	50.445660
742.950989	983.589966	3911.422363	2460.387451	50.439957
743.272095	957.262878	3854.362061	2394.400391	49.606087
743.593140	957.263000	3853.344971	2411.122803	50.200920
743.914063	954.099243	3795.832520	2380.728271	50.202774
744.234985	940.766235	3784.872559	2347.170166	49.449764
744.555847	961.669617	3717.303467	2313.611572	49.061016
744.876648	973.646790	3715.382080	2348.300049	50.138073
745.197449	951.387390	3686.005127	2334.288818	50.570190
745.518188	978.731323	3669.847168	2335.870605	50.430359
745.838867	970.821899	3649.960205	2321.520752	50.415424
746.159485	975.002625	3641.260254	2303.894043	49.841072
746.480042	971.160828	3595.159668	2289.657471	50.247608
746.800537	954.438293	3580.809814	2273.499512	50.223713
747.121094	966.302368	3585.894531	2280.279053	50.159588
747.441528	953.534363	3563.973877	2281.747803	50.880833
747.761902	944.608032	3546.121582	2274.177490	51.107533
748.082275	950.935425	3530.980957	2247.624512	50.258381
748.402588	982.460083	3588.719238	2305.363037	50.758686
748.722839	972.968872	3582.504639	2286.832764	50.348572
749.043030	956.246094	3565.442627	2272.482910	50.446060
749.363159	950.257507	3547.816406	2255.760010	50.258820
749.683289	971.386841	3592.786621	2303.668457	50.823288
750.003357	952.969238	3550.528564	2270.222656	50.711197
750.323303	940.653320	3545.104248	2247.059326	50.160515
750.643311	956.246094	3554.822266	2269.093018	50.521778
750.963257	1012.402710	3579.341064	2316.662354	50.809929
751.283142	972.742859	3549.172607	2276.437012	50.600803
751.602905	944.833862	3471.885986	2236.325195	51.106632
751.922729	983.929016	3511.320313	2278.584229	51.224964
752.242432	963.703613	3459.909424	2224.348145	50.502426
752.562134	958.957886	3453.694580	2212.371338	50.242313
752.881714	954.325317	3428.045410	2201.976074	50.436211
753.201355	966.076355	3422.282715	2190.224854	49.838989
753.520874	948.788696	3408.610840	2185.140137	50.261822
753.840393	950.935425	3417.650391	2187.287109	50.121387
754.159851	963.364624	3394.374268	2175.536133	49.862881
754.479248	963.025574	3373.583496	2173.841064	50.229675
754.798523	969.918091	3392.905029	2177.230957	49.827465
755.117859	969.805176	3385.108643	2183.558350	50.252617
755.437134	948.223633	3350.985596	2182.089111	51.351963
755.756348	978.731445	3348.838623	2172.259277	50.357548
756.075500	974.437805	3343.753906	2177.343994	50.770187
756.394653	960.087891	3315.393066	2147.853271	50.429363
756.713623	966.867188	3283.303467	2157.118408	51.382862
757.032654	988.109558	3312.568359	2154.519775	50.179859
757.351624	955.342102	3277.314941	2139.604492	51.002422
757.670532	949.353638	3269.857666	2129.209717	50.844822
757.989441	954.551270	3268.840332	2113.277832	50.068359
758.308289	945.850769	3310.082764	2151.355713	50.989281
758.627014	967.658203	3308.500732	2117.571289	49.123898
758.945801	958.845032	3316.410156	2146.271240	50.366634
759.264404	957.375977	3325.901611	2146.045410	50.186050
759.583130	952.856323	3383.526611	2175.761963	50.311455
759.901611	957.715027	3362.510498	2161.638184	50.063431
760.220215	986.414734	3371.662598	2171.241943	49.673126
760.538635	978.166321	3395.503418	2177.908936	49.630756
760.857117	952.630249	3352.567139	2156.892822	50.178925
761.175537	991.047241	3392.904785	2216.890625	51.037308
761.493896	952.969360	3355.957031	2151.017090	49.856586
761.812134	966.528320	3377.086426	2163.897949	49.671883
762.130432	995.454224	3387.707031	2215.308838	50.991875
762.448608	970.369995	3382.171143	2204.235840	51.159515
762.766785	987.205688	3402.396484	2218.359863	50.975437
763.084900	991.386414	3490.868408	2246.720459	50.223766
763.402954	956.472046	3622.729248	2297.905762	50.311489
763.720947	948.675659	3790.635254	2410.332275	51.431297
764.038940	956.471863	3976.731934	2480.951660	50.475117
764.356750	983.702942	4203.957031	2596.767822	50.091232
764.674683	964.720398	4291.977539	2623.998779	49.869255
764.992493	939.071289	4403.387207	2679.251709	50.231575
765.310303	955.907104	4422.595703	2695.183350	50.171116
765.627930	937.263367	4311.525391	2654.958496	50.905800
765.945679	989.804504	4201.923340	2602.078613	50.193478
766.263306	975.002625	4047.464355	2525.696289	50.470722
766.580872	967.432129	3895.264893	2454.511475	50.791130
766.898376	953.195435	3798.431152	2358.695068	49.398354
767.215881	957.036804	3649.847656	2300.504150	49.890892
767.533325	970.934937	3580.696777	2270.787842	49.807339
767.850708	951.048462	3457.649658	2218.246582	50.554440
768.168030	964.720520	3409.062988	2202.202148	50.626362
768.485352	963.477539	3303.980957	2153.050781	50.825527
768.802551	952.969238	3261.722168	2113.503662	50.266724
769.119751	947.319641	3198.447021	2096.894043	51.066608
769.436890	942.009155	3179.012451	2082.543945	50.984936
769.753967	946.641785	3125.228760	2047.064819	50.510864
770.071045	950.144531	3106.585449	2032.828125	50.206966
770.388062	981.669250	3074.269531	2040.624390	50.604744
770.704956	956.133118	3040.372314	1986.049561	49.414505
771.021912	977.601379	3017.434814	2025.483154	51.370949
771.338684	955.342102	3014.948730	1987.744385	50.126190
771.655579	957.488953	2962.859863	1967.405884	50.360607
771.972351	983.589966	2975.628174	1989.100220	50.476456
772.289063	950.935425	2939.583984	1964.355469	50.960239
772.605713	972.855774	2916.985596	1943.677734	49.936066
772.922302	963.703491	2909.866699	1943.112915	50.325142
773.238831	973.194946	2918.341309	1948.423462	50.136509
773.555420	1010.029968	2909.641113	1956.106689	49.803707
773.871826	960.200806	2878.116699	1914.638916	49.764336
774.188293	1001.103638	2888.285400	1942.208984	49.868294
774.504639	975.906616	2850.207764	1927.859009	50.789726
774.820984	978.618347	2847.834717	1916.446899	50.172287
775.137207	968.675110	2816.988281	1919.271729	51.430492
775.453552	944.043091	2798.457520	1874.526978	50.176697
775.769592	952.291382	2829.416992	1856.674194	48.179131
776.085815	938.280457	2782.638916	1855.657471	49.739628
776.401855	956.924011	2758.684326	1858.595337	50.043911
776.717896	957.488953	2765.012207	1850.459717	49.403004
777.033875	969.353027	2756.650635	1872.606201	50.537369
777.349854	959.748840	2748.176025	1846.618164	49.589344
777.665710	954.325317	2735.747314	1843.228271	49.898506
777.981567	966.754272	2744.108887	1852.154663	49.815628
778.297363	944.155945	2711.793213	1835.544678	50.428261
778.613098	949.805481	2698.233887	1827.748657	50.213272
778.928772	953.873230	2692.245361	1831.138306	50.464748
779.244385	970.483032	2723.318115	1855.657227	50.499569
779.559998	960.652710	2689.872559	1847.974243	51.313400
779.875488	947.206726	2666.596191	1816.901367	50.581596
780.191040	1000.086731	2714.731201	1895.882080	52.243793
780.506470	950.596558	2684.787842	1825.940674	50.475639
780.821899	959.635742	2669.873291	1844.810181	51.757397
781.137207	950.822388	2658.800293	1826.731689	51.283409
781.452576	936.585632	2655.410400	1799.613647	50.210358
781.767822	965.963379	2670.664551	1800.404541	48.949409
782.083069	938.167480	2627.953613	1801.760742	51.106659
782.398193	938.845337	2622.642578	1789.105469	50.496586
782.713379	945.850769	2589.084473	1786.506592	51.158630
783.028381	960.878784	2591.005127	1805.489258	51.812576
783.343384	943.591125	2560.610840	1745.264893	49.577240
783.658386	945.850891	2562.079590	1769.558228	50.964775
783.973328	948.788696	2533.831787	1760.292603	51.197594
784.288086	980.539185	2548.520508	1787.523682	51.466461
784.602966	959.183960	2506.826904	1728.881104	49.733509
784.917725	957.036926	2531.685059	1756.902954	50.796490
785.232483	950.144531	2498.578369	1722.779663	49.897846
785.547119	980.426147	2494.736572	1739.841187	50.149231
785.861755	967.771118	2480.273926	1713.514404	49.305248
786.176270	941.444153	2455.641602	1719.276733	51.369293
786.490845	954.551147	2468.522949	1708.994507	49.832062
786.805298	919.862671	2407.959473	1702.215210	52.574036
787.119751	962.799500	2459.370605	1734.304688	51.551525
787.434143	954.890015	2436.771973	1701.537109	50.385059
787.748474	957.036926	2481.629639	1706.057007	49.129189
788.062744	960.200867	2455.302490	1720.067749	50.823765
788.377014	951.726379	2488.521973	1742.552979	51.459450
788.691162	961.669739	2511.459473	1740.632080	50.262451
789.005310	972.177856	2575.299561	1762.326538	49.288128
789.319397	958.392883	2570.215088	1788.427734	51.496674
789.633423	960.426758	2592.926025	1754.643188	48.650341
789.947449	961.330750	2595.186035	1807.975220	51.818817
790.261414	942.687012	2569.197754	1756.903076	50.059063
790.575256	959.183777	2549.650391	1748.993530	49.658997
790.889160	960.652710	2541.515381	1746.394531	49.703358
791.202881	952.178345	2502.419922	1738.485107	50.721561
791.516663	950.031616	2441.291748	1725.717163	52.015442
791.830322	957.149902	2448.523193	1713.853516	50.738712
792.144043	941.105286	2414.399658	1682.215820	50.302948
792.457581	985.397949	2415.981934	1704.700928	50.280373
792.771118	957.714966	2352.593506	1662.442383	50.522491
793.084656	1001.329468	2380.728516	1705.379150	51.040321
793.398071	972.064758	2349.768799	1664.815063	50.282951
793.711487	961.217773	2294.063965	1621.878174	49.567638
794.024841	936.133606	2287.623535	1633.629272	51.609386
794.338135	965.850464	2284.346924	1640.747803	51.186890
794.651428	946.189819	2240.279785	1632.951294	53.069069
794.964600	973.194702	2285.137939	1654.193726	51.907658
795.277771	963.477539	2255.872559	1649.109131	53.051239
795.590881	967.884155	2268.754150	1643.685791	51.949974
795.903931	990.934448	2294.516113	1666.283936	51.807224
796.216980	945.398926	2269.883789	1620.861328	50.998123
796.529907	971.273743	2339.825439	1665.492798	50.726547
796.842834	957.601929	2317.905273	1644.476563	50.494225
797.155701	977.940430	2322.876953	1646.284424	49.693348
797.468506	973.646790	2350.785645	1670.012695	50.566135
797.781250	978.618347	2358.017090	1682.441406	51.023903
798.093994	952.743347	2318.470215	1658.261475	51.658802
798.406677	953.873230	2298.357666	1625.155029	49.928570
798.719238	956.697937	2304.798340	1630.578857	49.987446
799.031921	963.251465	2273.047852	1618.036743	49.991379
799.344360	969.805054	2266.042480	1639.166016	51.638763
799.656860	979.522278	2260.957764	1608.997314	49.122646
799.969299	956.698120	2229.206787	1599.957764	50.550510
800.281677	961.104675	2241.862061	1587.755127	48.928116
800.593933	959.748718	2234.517334	1571.371094	47.979092
800.906250	949.466492	2185.365723	1564.365845	49.753197
801.218445	948.788574	2169.886230	1568.885376	50.781918
801.530640	964.155396	2166.835693	1552.953491	48.957157
801.842712	961.104797	2127.740723	1559.845947	51.322021
802.154846	964.155396	2152.485840	1590.692627	52.724159
802.466797	951.839478	2143.333252	1530.355225	48.553822
802.778870	954.890259	2120.735107	1544.818237	50.600899
803.090759	961.104675	2140.282715	1547.416870	49.722111
803.402649	950.031616	2089.436523	1532.614990	51.130497
803.714478	945.172729	2086.837891	1526.739502	50.940224
804.026245	957.488892	2105.255371	1518.604248	48.887589
804.337952	951.274536	2080.058594	1525.722656	50.890877
804.649658	971.386902	2084.013184	1512.276611	48.613785
804.961243	963.590637	2073.279053	1507.192017	48.986847
805.272888	965.737305	2088.758545	1516.457520	49.039162
805.584412	948.336609	2089.549561	1539.846558	51.831692
805.895874	954.777161	2078.702637	1508.547974	49.271130
806.207336	944.607910	2117.797363	1518.491333	48.916519
806.518677	962.234680	2109.888184	1522.558716	48.823448
806.830017	956.585083	2080.623291	1542.332397	52.110977
807.141357	942.574219	2106.724365	1535.665894	50.946320
807.452576	967.771301	2096.781006	1548.320923	51.421135
807.763733	959.522827	2081.979004	1550.241699	52.627342
808.074890	941.218262	2074.635010	1505.158325	49.755756
808.385925	963.138550	2106.724121	1550.015869	51.319057
808.697021	959.635742	2065.256348	1532.276245	51.793579
809.007935	977.714355	2072.035889	1542.219360	51.584930
809.318909	987.092651	2057.912109	1511.937744	49.013405
809.629822	961.443665	2051.583984	1494.536865	48.901337
809.940674	960.313660	2031.133179	1490.582275	49.519886
810.251404	955.568176	2022.093750	1480.751953	49.242489
810.562195	974.550598	2030.229126	1492.616089	49.074173
810.872864	944.494995	1992.829102	1453.182129	48.523380
811.183533	965.285461	1987.292603	1469.791748	49.364262
811.494080	962.460571	1979.835205	1469.226929	49.811184
811.804626	952.178345	1949.101318	1448.210449	49.756313
812.115112	942.009094	1943.338867	1453.295166	51.060707
812.425598	943.477905	1916.333984	1442.109009	51.254356
812.735962	936.246460	1913.509033	1453.182251	52.896305
813.046326	948.901550	1915.203857	1421.657593	48.924236
813.356628	975.680542	1956.558838	1482.220947	51.641514
813.666870	958.731750	1908.989502	1451.826416	51.890621
813.976990	961.217651	1897.803345	1435.668457	50.657490
814.287170	956.472046	1899.498047	1421.770752	49.341026
814.597290	962.008606	1914.639038	1430.019165	49.128239
814.907349	941.218262	1888.650635	1403.805054	48.825310
815.217346	989.013489	1937.350342	1459.283813	49.588955
815.527283	960.539856	1896.673218	1418.381104	48.907696
815.837158	942.348022	1875.205078	1415.895020	50.763084
816.147034	959.296875	1886.278076	1423.013550	50.024387
816.456787	965.285461	1902.661865	1446.176758	51.301834
816.766541	967.997192	1899.497803	1438.606445	50.521626
817.076233	966.867188	1929.441040	1441.092041	49.266335
817.385925	989.578613	1887.973267	1447.758545	50.999851
817.695496	998.504761	1949.214478	1490.017334	51.699543
818.005066	969.240234	1919.497681	1459.735718	51.617115
818.314514	965.059387	1917.915649	1459.057739	51.843952
818.623962	949.579712	1887.181885	1429.792725	51.217140
818.933350	969.579102	1921.644287	1462.334351	51.756462
819.242737	986.753784	1953.055908	1477.588379	50.795147
819.552002	966.641235	1973.055420	1480.073975	51.016048
819.861328	969.240112	2016.444336	1473.181641	48.122566
820.170471	953.647095	2044.127197	1496.005859	49.735779
820.479675	969.353027	2095.989746	1529.112183	49.684086
820.788696	967.545105	2150.564941	1576.229736	51.451771
821.097839	963.816589	2233.613525	1607.867310	50.720768
821.406738	980.426147	2368.412598	1670.238892	49.698811
821.715698	958.505859	2435.867920	1715.435181	51.235195
822.024597	960.652649	2722.301514	1855.318604	50.785713
822.333435	987.318542	3276.185059	2167.852539	51.577232
822.642273	954.325195	4062.153076	2539.593994	51.008900
822.950989	966.189148	4827.104492	2910.319092	50.354118
823.259705	961.217773	5504.375000	3242.174316	50.206417
823.568359	968.336060	6007.187012	3524.201172	50.723175
823.876953	988.222534	6433.051758	3760.805176	50.921387
824.185486	941.557251	6535.986328	3782.725342	50.785664
824.494019	965.511353	6444.351074	3718.546387	50.248505
824.802429	954.099243	5915.438477	3474.598389	50.802795
825.110840	953.308289	5387.768066	3218.898193	51.090546
825.419189	964.268433	5030.941406	3032.010986	50.846054
825.727478	990.595520	4722.135742	2882.635986	50.704010
826.035767	960.313782	4420.674805	2739.928223	51.428577
826.343933	959.861816	4257.967285	2631.117432	50.673203
826.652100	960.539734	4011.081299	2508.521729	50.744495
826.960144	949.918335	3877.638184	2412.591797	49.959476
827.268250	958.279907	3796.510498	2396.998779	50.690701
827.576233	980.765259	3829.843262	2459.709473	51.909569
827.884155	967.545288	3816.848877	2423.100098	51.084579
828.192017	952.856323	3788.262207	2412.931152	51.494389
828.499878	958.279968	3747.246094	2403.891602	51.833244
828.807678	953.421204	3743.178223	2390.784668	51.522892
829.115479	954.890259	3677.643799	2356.096191	51.462830
829.423096	946.867798	3483.750000	2245.703613	51.198109
829.730835	947.206726	3267.484863	2114.407715	50.304356
830.038330	963.703491	3047.264648	2019.720947	50.683300
830.345947	956.359070	2892.014648	1965.598022	52.139389
830.653442	950.935547	2743.204834	1853.397217	50.353016
830.960876	951.500305	2627.614746	1782.890991	49.602261
831.268250	952.517456	2524.679199	1752.270142	50.869617
831.575623	956.245972	2401.518555	1690.802979	50.824806
831.882874	945.963867	2310.899414	1621.878174	49.519871
832.190125	949.240540	2226.495117	1575.777710	49.053429
832.497314	969.127136	2155.762451	1562.444702	49.999996
832.804504	1007.770142	2086.724854	1552.049561	50.445065
833.111572	965.737488	2024.127563	1491.938232	49.717087
833.418640	945.172852	2065.708496	1488.548340	48.492477
833.725586	959.974915	2109.097168	1542.671265	50.707947
834.032532	964.946411	2208.755371	1574.421997	49.000740
834.339417	964.946411	2372.706055	1668.317749	49.963879
834.646301	950.483521	2461.969238	1717.016968	50.713905
834.953003	972.290833	2588.745361	1789.331665	50.545238
835.259827	976.132446	2629.648438	1799.839844	49.815510
835.566467	975.680542	2672.811035	1836.448608	50.719028
835.873108	966.754272	2644.450439	1814.415649	50.525322
836.179688	952.856323	2565.017334	1775.885498	51.051300
836.486267	939.297363	2496.431641	1728.881226	50.707500
836.792664	940.427246	2384.795898	1671.255493	50.598457
837.099121	963.138489	2309.882813	1640.747803	50.314621
837.405518	977.827332	2255.194824	1618.149658	50.128281
837.711792	961.895630	2158.361084	1566.286377	50.514683
838.018127	945.850891	2062.883789	1510.468750	50.546211
838.324341	955.907104	2023.788696	1490.808350	50.089939
838.630554	942.687134	1961.417358	1472.277588	51.985348
838.936646	946.867798	1899.498047	1421.657349	49.839855
839.242737	954.890137	1841.759521	1399.963257	50.184742
839.548767	970.596008	1796.676025	1386.178223	50.307743
839.854797	978.957336	1753.061279	1357.365479	48.883377
840.160645	965.624207	1751.705078	1345.162476	48.282345
840.466553	948.562683	1732.722900	1320.756104	47.463951
840.772400	965.737183	1735.773804	1352.393799	50.212757
841.078186	962.347534	1749.784546	1374.540039	52.346092
841.383850	964.155579	1751.931396	1348.891235	48.838215
841.689575	951.387512	1770.801025	1359.173340	49.765572
841.995178	962.912476	1749.558594	1352.845703	49.569077
842.300781	944.269043	1747.863525	1368.551636	52.798096
842.606262	964.155457	1722.892334	1344.032471	50.067028
842.911743	960.087585	1685.040405	1313.750732	48.784298
843.217163	949.353638	1653.628662	1299.061890	49.655071
843.522583	947.997681	1630.578735	1299.174805	51.448414
843.827881	947.884766	1609.901367	1298.271118	52.927124
844.133179	947.771790	1587.189819	1276.463501	51.404823
844.438354	949.918579	1562.105835	1274.316650	52.990005
844.743530	957.827942	1553.631470	1252.396606	49.440571
845.048645	973.307800	1559.054932	1265.277588	49.845707
845.353760	950.596497	1502.559570	1220.532837	48.904781
845.658752	992.742188	1528.547607	1269.797119	51.708122
845.963745	1004.380371	1494.762939	1241.097290	48.271889
846.268555	970.822083	1434.651611	1201.889160	49.817242
846.573486	970.256958	1433.860596	1185.166626	46.356339
846.878296	1000.764832	1449.340576	1231.831787	51.511246
847.183044	976.584656	1402.787964	1182.341919	48.276787
847.487732	959.296875	1422.109375	1183.584839	48.461952
847.792419	953.308411	1420.075562	1187.426514	50.157364
848.097046	974.550659	1403.353027	1172.624390	46.192314
848.401611	961.669739	1392.166870	1168.218018	47.979015
848.706055	962.121704	1379.737793	1186.861572	53.814945
849.010559	944.946899	1355.331543	1155.788818	51.376659
849.314941	972.855774	1384.596436	1168.556885	47.530190
849.619324	942.122192	1362.450073	1155.901733	50.860188
849.923584	952.178406	1341.659546	1153.302979	51.639103
850.227844	958.844910	1336.801025	1156.240845	52.227211
850.532043	944.720886	1349.117065	1154.545898	51.886002
850.836243	955.116333	1348.665039	1153.076904	50.301414
851.140320	966.415222	1356.913330	1154.658936	48.206051
851.444397	962.008606	1355.783569	1162.568604	50.932644
851.748352	971.273926	1341.094727	1164.150146	52.153969
852.052307	965.059448	1358.834473	1153.189941	47.776138
852.356140	957.601868	1339.851807	1151.156128	50.635525
852.660095	971.838867	1343.693481	1163.133179	51.443306
852.963806	982.686035	1360.642334	1171.155640	49.865448
853.267578	1032.063232	1400.641113	1226.521484	52.759068
853.571228	989.804565	1334.992920	1151.156128	46.743050
853.874939	949.466614	1327.761841	1139.857056	50.328533
854.178467	951.613586	1321.999268	1142.116821	51.433746
854.482056	963.816406	1335.784180	1141.890869	47.873627
854.785461	968.562317	1344.597412	1144.602539	46.814838
855.088989	963.138550	1329.343506	1149.348389	50.848530
855.392273	971.386902	1322.338135	1133.077637	46.072136
855.695679	951.274414	1326.744873	1151.043213	53.204929
855.998901	997.826782	1352.507080	1173.867676	49.633682
856.302185	967.884155	1305.728271	1130.591675	48.160530
856.605286	958.957886	1320.982178	1170.703735	58.489403
856.908508	958.844849	1314.993896	1125.959106	46.922562
857.211548	961.330688	1307.310303	1121.213501	46.211628
857.514587	952.630371	1299.174927	1115.790039	47.081875
857.817566	952.517395	1297.931885	1116.580811	47.497547
858.120483	966.415344	1307.310181	1124.490234	46.370575
858.423340	976.471558	1321.999268	1149.009399	49.934589
858.726196	964.155579	1304.711548	1125.054932	47.246082
859.028931	976.358521	1345.614258	1159.969482	49.724606
859.331665	950.596497	1284.712036	1119.631592	50.591808
859.634277	970.031067	1319.287231	1134.094482	46.975094
859.936890	970.934753	1300.304932	1142.343018	52.041222
860.239441	968.562195	1303.807495	1131.382568	48.567535
860.541992	958.279907	1312.168701	1142.568726	52.075348
860.844421	959.296753	1283.695068	1119.857666	49.494991
861.146912	951.726379	1290.587646	1126.298096	51.517166
861.449219	947.206726	1269.345215	1104.603638	48.860016
861.751526	984.719910	1278.497314	1137.823120	52.115379
862.053772	1002.685547	1309.683105	1146.975586	47.000385
862.355957	975.115601	1306.406372	1138.953125	49.454296
862.658081	962.912476	1301.208618	1112.739136	44.288609
862.960266	946.528931	1276.124756	1109.010498	49.297218
863.262207	949.692566	1287.084839	1097.824219	43.904873
863.564331	966.076294	1285.615845	1137.823120	53.748222
863.866211	967.319153	1280.079346	1110.027344	45.628632
864.168091	949.918579	1274.203857	1107.880615	48.710827
864.469910	944.833862	1260.870728	1108.445557	51.769814
864.771729	957.827820	1266.859375	1122.343506	53.235886
865.073425	946.754761	1289.796753	1134.998291	54.874779
865.375122	958.505859	1273.525879	1113.304199	49.139206
865.676819	935.568665	1276.576660	1113.417236	52.153782
865.978333	955.229187	1264.712402	1109.575439	49.872253
866.279907	991.499329	1319.174438	1155.901855	50.172417
866.581360	967.093140	1285.954834	1147.766357	56.661938
866.882874	940.314148	1293.073364	1104.151733	46.444595
867.184143	951.048523	1258.610962	1127.766968	57.457745
867.485535	945.963745	1275.107666	1109.462280	49.673874
867.786743	981.669128	1302.903564	1143.133789	50.263809
868.088013	995.002075	1312.733887	1155.336792	50.462280
868.389160	974.324585	1282.452148	1120.761475	47.524761
868.690308	942.122192	1276.576416	1119.292725	52.973030
868.991333	939.636353	1274.768677	1107.428467	50.067421
869.292358	950.370483	1283.921021	1098.954224	44.546097
869.593323	987.883606	1320.191284	1137.258301	44.950722
869.894287	941.557251	1277.706543	1109.349365	49.915951
870.195068	973.194641	1304.259644	1137.032349	49.488079
870.495911	963.816284	1276.576538	1120.535400	50.108387
870.796692	960.313843	1267.198364	1130.817627	55.559589
871.097412	966.076294	1284.033936	1123.586304	49.538048
871.398010	957.827942	1294.429321	1111.609131	45.686440
871.698669	971.499878	1267.198486	1111.948242	47.497135
871.999207	962.912598	1267.085205	1110.818115	48.625523
872.299683	947.093750	1276.463623	1121.439453	52.933105
872.600159	963.025574	1278.949585	1127.992920	52.217415
872.900574	950.031555	1258.158936	1123.586304	56.325649
873.200867	962.008667	1260.870850	1110.027222	49.527363
873.501160	958.279907	1270.701050	1116.015869	50.488247
873.801392	960.200806	1278.949463	1105.959595	45.728439
874.101624	955.794128	1293.186523	1123.699219	49.765522
874.401733	956.810913	1306.632202	1122.569336	47.383743
874.701843	969.353027	1287.649658	1123.021240	48.278305
875.001831	968.223145	1295.559204	1121.552490	46.841568
875.301819	958.053894	1286.293701	1138.727173	55.043076
875.601746	976.019531	1309.005127	1145.958618	51.034966
875.901672	966.302246	1308.440308	1141.212891	51.122826
876.201477	947.771667	1293.638184	1104.603760	45.344688
876.501282	959.183899	1282.791138	1125.168213	51.291904
876.800964	966.754395	1305.389160	1137.823120	50.517178
877.100647	956.698242	1282.791138	1129.010010	52.841312
877.400208	970.256958	1282.113037	1121.891357	48.623199
877.699829	987.092773	1343.693481	1173.641479	52.313049
877.999329	947.884766	1299.852783	1128.557983	51.332283
878.298767	963.364441	1295.220093	1127.766846	49.540337
878.598206	949.918579	1314.767822	1130.139771	49.396072
878.897583	942.912903	1298.723022	1130.252808	52.651653
879.196838	951.048462	1303.468506	1132.964722	51.619160
879.496155	947.658569	1309.909180	1120.648560	47.754230
879.795288	974.550659	1340.190796	1146.184326	46.940598
880.094482	963.590637	1351.263916	1154.997803	49.373318
880.393555	951.839478	1341.659424	1158.500610	53.014511
880.692627	958.505737	1373.297119	1180.420898	53.500427
880.991577	948.675781	1399.511230	1192.285034	54.035072
881.290588	947.206665	1468.661987	1222.114868	52.719418
881.589355	944.268921	1561.427734	1262.678711	51.592846
881.888306	973.759766	1743.683228	1374.314209	52.025230
882.187012	959.183777	1987.179321	1484.593628	51.110126
882.485840	956.245972	2202.879883	1601.539795	51.762897
882.784424	965.737305	2464.906982	1741.875000	51.771172
883.083069	970.257019	2685.579102	1844.584229	50.971607
883.381592	979.974304	2881.393311	1931.700806	50.053490
883.680176	953.986145	3010.542480	2004.805908	51.096085
883.978638	947.658569	3078.901611	2055.426270	51.977535
884.277039	954.664246	3086.585449	2038.703735	50.848015
884.575378	978.166321	3034.609131	2022.997803	50.807709
884.873779	925.625366	2884.557129	1923.678345	50.948837
885.171997	961.330750	2786.480225	1888.311890	50.789330
885.470276	989.013550	2724.335449	1866.956665	50.592522
885.768311	947.884644	2585.920410	1778.258423	50.693264
886.066528	949.014526	2474.059326	1711.254517	49.981483
886.364502	939.523438	2358.695068	1665.153931	51.130566
886.662537	929.354126	2213.952881	1614.985718	53.373211
886.960510	950.144531	2107.515137	1572.840088	53.802608
887.258362	954.551270	1974.637329	1492.842041	52.769154
887.556213	946.867798	1834.302002	1399.172241	50.967659
887.854004	950.822449	1718.711670	1346.518311	51.530331
888.151733	975.680542	1661.876953	1323.016113	50.617516
888.449402	980.765320	1605.042480	1275.785767	47.257927
888.747009	956.698059	1524.027832	1255.673096	52.698635
889.044617	961.104797	1479.509033	1226.295532	51.155201
889.342163	952.404419	1436.459351	1186.409424	48.342655
889.639648	952.743347	1401.093018	1179.065186	50.478867
889.937012	937.263672	1379.059814	1153.190063	48.874668
890.234436	971.500000	1390.697998	1168.782959	47.062000
890.531738	949.014648	1341.885620	1153.302979	51.998837
890.829041	948.788574	1323.241943	1132.964600	49.185303
891.126221	942.800110	1330.699463	1112.852173	43.839222
891.423401	951.952454	1286.519775	1100.423218	44.376945
891.720459	950.596497	1290.474609	1121.552490	50.299206
892.017578	960.087708	1299.287842	1116.354858	46.069305
892.314514	956.020020	1257.593994	1110.818359	51.330139
892.611511	961.895630	1281.548340	1131.947632	53.198986
>>>>>End Processed Spectral Data<<<<<
