Jaz Data File
++++++++++++++++++++++++++++++++++++
Date: Mon Apr 25 12:49:11 2016
User: jaz
Dark Spectrum Present: Yes
Reference Spectrum Present: Yes
Processed Spectrum Present: Yes
Spectrometers: JAZA3098
Integration Time (usec): 748000 (JAZA3098)
Spectra Averaged: 1 (JAZA3098)
Boxcar Smoothing: 0 (JAZA3098)
Correct for Electrical Dark: No (JAZA3098)
Strobe/Lamp Enabled: Yes (JAZA3098)
Correct for Detector Non-linearity: No (JAZA3098)
Correct for Stray Light: No (JAZA3098)
Number of Pixels in Processed Spectrum: 2048
>>>>>Begin Processed Spectral Data<<<<<
W	D	R	S	P
190.313904	0.000000	0.000000	0.000000	0.000000
190.695511	0.000000	0.000000	0.000000	0.000000
191.077087	1138.953125	1123.134277	1102.795898	228.570541
191.458633	1184.149658	1227.086426	1059.859131	-289.473419
191.840149	1175.110352	1193.188965	1132.173584	-237.500336
192.221634	1213.527466	1215.787231	1093.756592	-5300.145996
192.603088	1206.747925	1308.440186	1179.630005	-26.666651
192.984528	1292.621338	1260.983765	1258.723999	107.142662
193.365921	1294.881226	1362.676025	1236.125732	-86.666664
193.747284	1206.747925	1288.101685	1242.905151	44.444443
194.128616	1242.905151	1224.826538	1238.385498	25.000000
194.509918	1303.920532	1306.180420	1215.787231	-3899.897461
194.891190	1256.464111	1281.322266	1274.542725	72.727097
195.272446	1204.488159	1281.322266	1193.188965	-14.705962
195.653656	1419.171753	1367.195679	1392.053833	52.173851
196.034836	1254.204346	1274.542725	1204.488159	-244.445175
196.416000	1195.448853	1251.944458	1190.929199	-8.000009
196.797104	1290.361572	1312.959839	1312.959839	100.000000
197.178192	1315.219727	1303.920532	1249.684692	579.997437
197.559265	1328.778687	1227.086426	1245.165039	82.222237
197.940292	1251.944458	1233.865845	1213.527466	212.499664
198.321304	1288.101685	1236.125732	1222.566772	126.086990
198.702271	1337.817993	1220.306885	1254.204346	71.153824
199.083221	1175.110352	1308.440186	1177.370239	1.694960
199.464111	1220.306885	1308.440186	1188.669312	-35.897411
199.844986	1292.621338	1236.125732	1236.125732	100.000000
200.225830	1245.165039	1303.920532	1145.732544	-169.230972
200.606659	1222.566772	1267.763306	1251.944458	64.999863
200.987427	1389.793945	1385.274292	1353.636719	800.000000
201.368195	1290.361572	1373.975220	1236.125732	-64.864815
201.748917	1303.920532	1349.117065	1215.787231	-195.000137
202.129608	1288.101685	1274.542725	1193.188965	700.000000
202.510284	1290.361572	1238.385498	1258.723999	60.869495
202.890915	1175.110352	1218.047119	1186.409546	26.315895
203.271515	1242.905151	1249.684692	1222.566772	-299.996399
203.652100	1274.542725	1317.479492	1181.889893	-215.789032
204.032623	1251.944458	1312.959839	1172.850586	-129.629395
204.413147	1317.479492	1206.747925	1157.031738	144.897934
204.793625	1340.077759	1367.195679	1197.708618	-525.000244
205.174088	1258.723999	1274.542725	1202.228271	-357.144623
205.554504	1215.787231	1297.140991	1080.197632	-166.666672
205.934906	1181.889893	1267.763306	1177.370239	-5.263158
206.315247	1193.188965	1213.527466	1199.968506	33.333534
206.695587	1215.787231	1249.684692	1224.826538	26.666618
207.075882	1283.582031	1380.754639	1297.140991	13.953480
207.456146	1254.204346	1317.479492	1197.708618	-89.285812
207.836380	1353.636719	1290.361572	1254.204346	157.142853
208.216599	1242.905151	1236.125732	1218.047119	366.669067
208.596771	1224.826538	1283.582031	1190.929199	-57.692204
208.976913	1303.920532	1373.975220	1251.944458	-74.193573
209.357025	1383.014526	1498.265747	1403.352905	17.646997
209.737106	1256.464111	1299.400879	1163.811279	-215.789032
210.117157	1204.488159	1283.582031	1179.630005	-31.428673
210.497177	1202.228271	1335.558105	1222.566772	15.254276
210.877167	1258.723999	1242.905151	1172.850586	542.855042
211.257126	1238.385498	1227.086426	1215.787231	200.001083
211.637070	1238.385498	1360.416260	1249.684692	9.259300
212.016968	1227.086426	1267.763306	1134.433472	-227.777924
212.396835	1312.959839	1294.881226	1222.566772	500.000000
212.776672	1186.409546	1238.385498	1138.953125	-91.304573
213.156464	1218.047119	1265.503418	1163.811279	-114.285858
213.536255	1231.606079	1231.606079	1209.007813	0.000000
213.916000	1170.590698	1349.117065	1172.850586	1.265857
214.295700	1233.865845	1258.723999	1245.165039	45.454678
214.675400	1258.723999	1321.999146	1188.669312	-110.714386
215.055038	1209.007813	1224.826538	1204.488159	-28.571539
215.434662	1267.763306	1319.739380	1240.645386	-52.173851
215.814240	1317.479492	1288.101685	1344.597412	-92.307503
216.193787	1265.503418	1285.841919	1229.346191	-177.777237
216.573334	1297.140991	1319.739380	1229.346191	-299.998383
216.952820	1249.684692	1272.282959	1224.826538	-110.000267
217.332275	1260.983765	1188.669312	1197.708618	87.500000
217.711716	1378.494873	1387.534180	1258.723999	-1325.000732
218.091125	1285.841919	1233.865845	1168.330933	226.086685
218.470505	1432.730713	1430.470825	1412.392212	899.978394
218.849854	1312.959839	1301.660645	1186.409546	1119.993896
219.229156	1297.140991	1288.101685	1199.968506	1074.999268
219.608444	1233.865845	1297.140991	1186.409546	-74.999901
219.987671	1333.298340	1369.455566	1283.582031	-137.500336
220.366898	1272.282959	1218.047119	1163.811279	200.000000
220.746094	1342.337646	1353.636719	1310.700073	-280.001526
221.125244	1344.597412	1394.313599	1256.464111	-177.272858
221.504364	1331.038452	1303.920532	1181.889893	550.000000
221.883469	1229.346191	1283.582031	1218.047119	-20.833221
222.262512	1283.582031	1297.140991	1233.865845	-366.666656
222.641556	1177.370239	1209.007813	1186.409546	28.571428
223.020554	1227.086426	1270.023071	1283.582031	131.578995
223.399521	1238.385498	1258.723999	1190.929199	-233.332336
223.778473	1220.306885	1270.023071	1136.693237	-168.181946
224.157364	1168.330933	1265.503418	1233.865845	67.441841
224.536240	1310.700073	1211.267578	1238.385498	72.727303
224.915085	1084.717285	1231.606079	1211.267578	86.153809
225.293900	1215.787231	1344.597412	1199.968506	-12.280648
225.672684	1267.763306	1315.219727	1215.787231	-109.523796
226.051437	1258.723999	1267.763306	1159.291626	-1100.000000
226.430161	1175.110352	1319.739380	1211.267578	24.999979
226.808838	1233.865845	1317.479492	1224.826538	-10.810802
227.187500	1353.636719	1342.337646	1303.920532	440.002380
227.566132	1213.527466	1324.259033	1211.267578	-2.040870
227.944717	1265.503418	1294.881226	1213.527466	-176.922501
228.323288	1355.896606	1335.558105	1294.881226	299.999390
228.701813	1251.944458	1297.140991	1209.007813	-94.999863
229.080307	1229.346191	1333.298340	1211.267578	-17.391283
229.458786	1265.503418	1288.101685	1218.047119	-209.999725
229.837234	1238.385498	1326.518799	1206.747925	-35.897411
230.215637	1159.291626	1297.140991	1197.708618	27.868820
230.594009	1236.125732	1398.833252	1281.322266	27.777779
230.972351	1231.606079	1394.313599	1213.527466	-11.111111
231.350662	1265.503418	1484.706787	1290.361572	11.340224
231.728958	1188.669312	1410.132446	1213.527466	11.224511
232.107193	1242.905151	1387.534180	1195.448853	-32.812431
232.485413	1197.708618	1326.518799	1152.512085	-35.087704
232.863602	1204.488159	1367.195679	1179.630005	-15.277815
233.241760	1233.865845	1401.093140	1188.669312	-27.027008
233.619873	1163.811279	1249.684692	1184.149658	23.684139
233.997986	1331.038452	1416.911865	1251.944458	-92.105331
234.376038	1346.857300	1441.770020	1297.140991	-52.381081
234.754074	1242.905151	1453.069214	1204.488159	-18.279526
235.132065	1321.999146	1349.117065	1163.811279	-583.333313
235.510025	1231.606079	1410.132446	1258.723999	15.189868
235.887970	1249.684692	1378.494873	1161.551392	-68.421066
236.265869	1260.983765	1439.510132	1213.527466	-26.582235
236.643738	1245.165039	1432.730713	1188.669312	-30.120504
237.021576	1229.346191	1373.975220	1111.835205	-81.249931
237.399384	1233.865845	1315.219727	1134.433472	-122.222038
237.777161	1265.503418	1419.171753	1186.409546	-51.470509
238.154892	1301.660645	1299.400879	1186.409546	5100.135254
238.532623	1220.306885	1385.274292	1229.346191	5.479450
238.910309	1279.062378	1389.793945	1224.826538	-48.979565
239.287949	1197.708618	1401.093140	1247.424805	24.444429
239.665573	1215.787231	1401.093140	1238.385498	12.195114
240.043167	1251.944458	1441.770020	1224.826538	-14.285706
240.420715	1290.361572	1498.265747	1260.983765	-14.130456
240.798233	1242.905151	1550.241699	1267.763306	8.088252
241.175735	1312.959839	1527.643433	1258.723999	-25.263151
241.553207	1184.149658	1405.612793	1181.889893	-1.020380
241.930634	1222.566772	1493.746094	1186.409546	-13.333327
242.308014	1245.165039	1498.265747	1206.747925	-15.178588
242.685394	1172.850586	1527.643433	1224.826538	14.649662
243.062729	1272.282959	1622.556274	1202.228271	-20.000008
243.440033	1168.330933	1606.737427	1184.149658	3.608232
243.817307	1301.660645	1712.949341	1247.424805	-13.186806
244.194534	1163.811279	1746.846802	1220.306885	9.689908
244.571747	1220.306885	1742.327148	1263.243652	8.225115
244.948929	1249.684692	1807.862061	1238.385498	-2.024302
245.326065	1188.669312	1733.287720	1166.071045	-4.149376
245.703186	1301.660645	1642.894653	1204.488159	-28.476788
246.080261	1168.330933	1615.776733	1224.826538	12.626245
246.457306	1206.747925	1660.973267	1181.889893	-5.472621
246.834320	1301.660645	1595.438354	1251.944458	-16.923063
247.211304	1258.723999	1719.728760	1279.062378	4.411750
247.588257	1272.282959	1819.161255	1292.621338	3.718995
247.965195	1279.062378	1918.593628	1319.739380	6.360440
248.342087	1199.968506	2018.026001	1360.416260	19.613262
248.718933	1220.306885	1975.089355	1242.905151	2.994010
249.095764	1195.448853	1977.349121	1199.968506	0.578035
249.472549	1247.424805	2207.851563	1274.542725	2.823528
249.849319	1170.590698	2031.585083	1161.551392	-1.049868
250.226044	1218.047119	1999.947388	1267.763306	6.358379
250.602737	1193.188965	1857.578247	1270.023071	11.564622
250.979401	1301.660645	1792.043335	1213.527466	-17.972326
251.356033	1317.479492	1886.956055	1258.723999	-10.317456
251.732635	1260.983765	1731.027954	1283.582031	4.807690
252.109207	1324.259033	1792.043335	1258.723999	-14.009669
252.485748	1333.298340	1794.303101	1222.566772	-24.019615
252.862244	1242.905151	1649.674194	1204.488159	-9.444424
253.238724	1276.802612	1733.287720	1242.905151	-7.425754
253.615158	1267.763306	1758.145874	1240.645386	-5.529952
253.991577	1285.841919	1758.145874	1245.165039	-8.612437
254.367950	1204.488159	1753.626221	1240.645386	6.584360
254.744308	1394.313599	1884.696289	1358.156372	-7.373267
255.120621	1288.101685	1755.886108	1224.826538	-13.526561
255.496902	1238.385498	1758.145874	1222.566772	-3.043465
255.873154	1211.267578	1674.532227	1181.889893	-6.341448
256.249390	1249.684692	1688.091187	1276.802612	6.185565
256.625549	1218.047119	1640.634888	1204.488159	-3.208555
257.001709	1358.156372	1789.783447	1297.140991	-14.136134
257.377838	1303.920532	1719.728760	1315.219727	2.717405
257.753937	1251.944458	1681.311768	1227.086426	-5.789456
258.129974	1170.590698	1726.508301	1249.684692	14.227647
258.506012	1274.542725	1846.279175	1283.582031	1.581027
258.881989	1319.739380	1873.397095	1231.606079	-15.918373
259.257935	1240.645386	1905.034668	1288.101685	7.142845
259.633911	1220.306885	1941.191895	1265.503418	6.269590
260.009766	1265.503418	2067.742188	1297.140991	3.943660
260.385651	1358.156372	2323.102783	1371.715332	1.405152
260.761475	1161.551392	2295.984863	1260.983765	8.764936
261.137299	1220.306885	2422.535156	1297.140991	6.390975
261.513062	1179.630005	2576.203369	1220.306885	2.912620
261.888763	1331.038452	2628.179443	1407.872559	5.923343
262.264496	1222.566772	2549.085449	1238.385498	1.192499
262.640137	1227.086426	2329.882324	1283.582031	5.122943
263.015808	1168.330933	2334.401855	1195.448853	2.325581
263.391388	1317.479492	2336.661865	1358.156372	3.991129
263.766998	1315.219727	2239.489258	1401.093140	9.290949
264.142517	1312.959839	2196.552490	1324.259033	1.278779
264.518036	1231.606079	1993.167969	1251.944458	2.670614
264.893524	1251.944458	2058.702881	1281.322266	3.641463
265.268951	1288.101685	2149.095947	1256.464111	-3.674539
265.644379	1233.865845	1918.593628	1274.542725	5.940591
266.019745	1193.188965	1945.711548	1247.424805	7.207204
266.395111	1238.385498	1959.270508	1333.298340	13.166156
266.770386	1292.621338	1999.947388	1231.606079	-8.626185
267.145691	1233.865845	2038.364502	1186.409546	-5.898866
267.520966	1236.125732	2101.639648	1324.259033	10.182771
267.896149	1324.259033	2194.292725	1344.597412	2.337654
268.271362	1240.645386	2214.631104	1227.086426	-1.392111
268.646515	1129.913818	2133.277344	1199.968506	6.981985
269.021606	1206.747925	2293.725098	1251.944458	4.158002
269.396729	1209.007813	2203.332031	1254.204346	4.545452
269.771790	1218.047119	2320.843018	1306.180420	7.991805
270.146790	1301.660645	2250.788330	1265.503418	-3.809522
270.521790	1401.093140	2286.945557	1403.352905	0.255095
270.896759	1272.282959	2244.008789	1281.322266	0.930232
271.271667	1202.228271	2363.779785	1346.857300	12.451365
271.646545	1199.968506	2384.118164	1276.802612	6.488547
272.021423	1274.542725	2370.559082	1310.700073	3.298979
272.396271	1179.630005	2521.967529	1288.101685	8.080805
272.771027	1215.787231	2562.644531	1218.047119	0.167790
273.145813	1233.865845	2725.352051	1283.582031	3.333332
273.520538	1292.621338	2772.808594	1344.597412	3.511453
273.895233	1206.747925	2756.989746	1360.416260	9.912539
274.269897	1222.566772	2619.140137	1337.817993	8.252429
274.644501	1258.723999	2668.856445	1346.857300	6.250001
275.019135	1249.684692	2603.321289	1294.881226	3.338897
275.393677	1163.811279	2540.046143	1294.881226	9.523807
275.768250	1195.448853	2476.770996	1326.518799	10.229274
276.142700	1224.826538	2472.251465	1229.346191	0.362319
276.517212	1213.527466	2544.565918	1303.920532	6.791169
276.891632	1163.811279	2576.203369	1321.999146	11.199997
277.266022	1292.621338	2646.258057	1283.582031	-0.667779
277.640381	1256.464111	2709.533203	1303.920532	3.265944
278.014740	1260.983765	2711.793213	1385.274292	8.566978
278.389038	1213.527466	2707.273438	1324.259033	7.413012
278.763336	1193.188965	2675.635986	1335.558105	9.603658
279.137543	1188.669312	2754.729980	1337.817993	9.523812
279.511780	1240.645386	2621.400146	1242.905151	0.163662
279.885925	1265.503418	2707.273438	1290.361572	1.724141
280.260101	1227.086426	2689.194824	1326.518799	6.800616
280.634186	1195.448853	2775.068359	1331.038452	8.583688
281.008301	1285.841919	2747.950439	1367.195679	5.564140
281.382294	1206.747925	2804.446045	1342.337646	8.486567
281.756348	1267.763306	2942.295654	1303.920532	2.159243
282.130280	1181.889893	3043.987793	1344.597412	8.737861
282.504272	1270.023071	3107.262939	1292.621338	1.230012
282.878143	1229.346191	3247.372314	1346.857300	5.823071
283.252014	1238.385498	3301.608154	1342.337646	5.038339
283.625854	1392.053833	3401.040527	1450.809326	2.924633
283.999664	1263.243652	3321.946533	1351.376953	4.281011
284.373444	1265.503418	3362.623535	1358.156372	4.418104
284.747192	1247.424805	3297.088379	1380.754639	6.504962
285.120941	1294.881226	3416.859375	1394.313599	4.685834
285.494629	1161.551392	3326.466309	1254.204346	4.279750
285.868256	1202.228271	3407.820068	1310.700073	4.918036
286.241882	1324.259033	3642.842041	1392.053833	2.923975
286.615448	1256.464111	3688.038574	1342.337646	3.531602
286.988983	1202.228271	3520.811523	1310.700073	4.678366
287.362518	1344.597412	3848.486328	1403.352905	2.346570
287.736023	1179.630005	3929.840332	1321.999146	5.176663
288.109467	1290.361572	3758.093262	1328.778687	1.556778
288.482880	1317.479492	3782.951416	1392.053833	3.024749
288.856262	1355.896606	3778.431885	1410.132446	2.238805
289.229584	1249.684692	3645.102051	1360.416260	4.622642
289.602936	1240.645386	3819.108643	1279.062378	1.489918
289.976227	1224.826538	3617.984131	1432.730713	8.687442
290.349457	1303.920532	3721.936035	1337.817993	1.401871
290.722687	1247.424805	3593.125977	1342.337646	4.046246
291.095886	1247.424805	3916.281250	1444.029785	7.366638
291.469025	1206.747925	3823.628418	1410.132446	7.772022
291.842133	1224.826538	4078.988770	1441.770020	7.600952
292.215240	1294.881226	4049.611084	1437.250366	5.168170
292.588287	1220.306885	4162.602539	1383.014526	5.529955
292.961304	1222.566772	4076.729004	1387.534180	5.779889
293.334320	1276.802612	4015.713623	1421.431519	5.280526
293.707245	1213.527466	3927.580322	1346.857300	4.912573
294.080170	1202.228271	3999.894775	1373.975220	6.138936
294.453064	1215.787231	4060.910156	1448.549561	8.181099
294.825897	1236.125732	4173.901367	1337.817993	3.461540
295.198730	1184.149658	4230.397461	1392.053833	6.824926
295.571533	1215.787231	4390.845215	1337.817993	3.843418
295.944275	1310.700073	4413.443359	1450.809326	4.515657
296.317017	1247.424805	4711.740723	1473.407593	6.523158
296.689697	1222.566772	4720.779785	1376.234985	4.392763
297.062317	1249.684692	4815.692871	1360.416260	3.105196
297.434967	1274.542725	4973.880371	1373.975220	2.687846
297.807526	1238.385498	4994.219238	1489.226440	6.678702
298.180115	1209.007813	5003.258301	1396.573486	4.943419
298.552612	1199.968506	5107.210449	1425.951172	5.783688
298.925110	1267.763306	5080.092285	1416.911865	3.912269
299.297546	1260.983765	5102.690918	1523.123779	6.823530
299.669983	1206.747925	4958.062012	1493.746094	7.650604
300.042358	1274.542725	4811.172852	1464.368286	5.367414
300.414734	1285.841919	4533.214355	1437.250366	4.662491
300.787048	1288.101685	4650.725098	1385.274292	2.889786
301.159332	1236.125732	4393.104980	1387.534180	4.795991
301.531616	1222.566772	4408.923828	1344.597412	3.829786
301.903809	1249.684692	4368.246582	1331.038452	2.608695
302.276031	1193.188965	4345.648438	1331.038452	4.372760
302.648163	1206.747925	4429.262207	1367.195679	4.978962
303.020294	1195.448853	4381.805664	1394.313599	6.241132
303.392395	1213.527466	4390.845215	1279.062378	2.062586
303.764435	1209.007813	4402.144043	1337.817993	4.033971
304.136444	1279.062378	4234.916992	1360.416260	2.752297
304.508453	1236.125732	4239.436523	1398.833252	5.417605
304.880371	1299.400879	4223.617676	1353.636719	1.854713
305.252319	1222.566772	4185.200684	1414.652100	6.483600
305.624207	1281.322266	4176.161621	1410.132446	4.449649
305.996033	1260.983765	4180.681152	1362.676025	3.482973
306.367859	1132.173584	4049.611084	1331.038452	6.816422
306.739655	1213.527466	4210.059082	1276.802612	2.111613
307.111389	1209.007813	4130.964844	1349.117065	4.795048
307.483124	1190.929199	4142.264160	1362.676025	5.819293
307.854828	1301.660645	4243.956055	1385.274292	2.841783
308.226471	1256.464111	4203.279297	1392.053833	4.601229
308.598083	1326.518799	4365.986816	1308.440186	-0.594795
308.969666	1233.865845	4259.774902	1317.479492	2.763257
309.341187	1256.464111	4404.403809	1360.416260	3.302228
309.712738	1236.125732	4585.190430	1340.077759	3.103912
310.084167	1211.267578	4614.567871	1310.700073	2.921649
310.455658	1324.259033	4973.880371	1450.809326	3.467491
310.827057	1238.385498	4919.644531	1455.328979	5.893187
311.198456	1215.787231	4838.291016	1430.470825	5.926387
311.569794	1267.763306	5062.013672	1453.069214	4.883861
311.941132	1233.865845	5041.675293	1389.793945	4.094955
312.312408	1204.488159	4960.321777	1432.730713	6.077015
312.683655	1224.826538	4951.282227	1331.038452	2.850213
313.054840	1279.062378	4761.456543	1416.911865	3.958469
313.426056	1333.298340	4933.203613	1419.171753	2.385435
313.797180	1328.778687	5048.455078	1489.226440	4.313487
314.168304	1260.983765	4689.142090	1407.872559	4.284773
314.539368	1211.267578	4589.709961	1258.723999	1.404683
314.910431	1236.125732	4702.701172	1333.298340	2.803130
315.281433	1274.542725	4790.834473	1351.376953	2.185092
315.652435	1303.920532	5007.777832	1342.337646	1.037219
316.023346	1245.165039	4991.958984	1340.077759	2.533172
316.394287	1238.385498	4964.841309	1288.101685	1.334141
316.765137	1199.968506	4845.070313	1369.455566	4.649721
317.135986	1303.920532	4962.581543	1401.093140	2.655961
317.506775	1224.826538	4686.882324	1317.479492	2.676241
317.877594	1319.739380	4695.921875	1459.848633	4.149931
318.248291	1294.881226	4431.521973	1425.951172	4.178673
318.619019	1242.905151	4614.567871	1376.234985	3.954424
318.989655	1274.542725	4734.338867	1471.147827	5.682563
319.360321	1299.400879	4695.921875	1398.833252	2.927477
319.730896	1328.778687	4655.245117	1432.730713	3.124999
320.101501	1242.905151	4601.008789	1340.077759	2.893675
320.472015	1218.047119	4704.960938	1317.479492	2.851587
320.842529	1190.929199	4668.803711	1337.817993	4.223522
321.213013	1211.267578	4727.559570	1337.817993	3.598974
321.583466	1299.400879	4623.607422	1434.990479	4.078856
321.953827	1240.645386	4560.332031	1364.935913	3.744044
322.324188	1272.282959	4558.072266	1378.494873	3.232463
322.694519	1143.472778	4619.087402	1310.700073	4.811445
323.064819	1310.700073	4677.843262	1353.636719	1.275165
323.435059	1294.881226	4985.179688	1416.911865	3.306796
323.805328	1310.700073	4899.306152	1360.416260	1.385390
324.175507	1337.817993	5089.131836	1394.313599	1.506022
324.545685	1229.346191	5202.123047	1358.156372	3.242321
324.915802	1303.920532	5559.175781	1376.234985	1.699415
325.285919	1290.361572	5683.466309	1480.187134	4.320989
325.655975	1260.983765	5584.034180	1407.872559	3.397804
326.025970	1129.913818	5450.704102	1392.053833	6.066947
326.395966	1263.243652	5428.105957	1482.446899	5.263157
326.765930	1181.889893	5471.042480	1376.234985	4.531084
327.135864	1227.086426	5577.254395	1326.518799	2.285713
327.505737	1233.865845	5484.601563	1462.108521	5.369486
327.875580	1247.424805	5319.634277	1450.809326	4.994452
328.245422	1455.328979	5572.734863	1620.296387	4.006586
328.615204	1222.566772	5265.398438	1396.573486	4.304080
328.984955	1188.669312	5159.186523	1346.857300	3.984065
329.354675	1218.047119	5206.642578	1333.298340	2.889519
329.724365	1224.826538	5048.455078	1279.062378	1.418439
330.093994	1238.385498	5048.455078	1364.935913	3.321473
330.463623	1218.047119	5109.470215	1358.156372	3.600463
330.833191	1211.267578	5276.697266	1362.676025	3.724291
331.202759	1215.787231	5118.509766	1369.455566	3.937465
331.572266	1125.394165	5254.099121	1326.518799	4.871373
331.941711	1251.944458	5414.546875	1380.754639	3.094463
332.311188	1231.606079	5407.767578	1414.652100	4.383116
332.680573	1209.007813	5428.105957	1380.754639	4.070700
333.049988	1242.905151	5466.522949	1378.494873	3.210274
333.419312	1215.787231	5839.394531	1477.927246	5.669600
333.788635	1233.865845	5868.772461	1407.872559	3.754266
334.157867	1222.566772	5880.071289	1326.518799	2.231925
334.527130	1236.125732	5904.929688	1358.156372	2.613745
334.896332	1294.881226	6117.353516	1462.108521	3.467667
335.265503	1163.811279	6178.368652	1349.117065	3.695357
335.634613	1317.479492	6214.525879	1385.274292	1.384402
336.003723	1265.503418	6054.078125	1509.564819	5.096744
336.372772	1319.739380	6169.329590	1448.549561	2.656104
336.741821	1254.204346	5952.385742	1355.896606	2.164503
337.110809	1204.488159	5859.732910	1441.770020	5.097087
337.479797	1220.306885	5920.748535	1444.029785	4.759614
337.848724	1281.322266	6006.621582	1527.643433	5.212816
338.217590	1254.204346	5947.866211	1403.352905	3.177659
338.586487	1134.433472	5850.693848	1394.313599	5.510301
338.955292	1267.763306	5970.464355	1421.431519	3.267658
339.324036	1179.630005	5961.425293	1360.416260	3.780719
339.692841	1215.787231	5954.645996	1414.652100	4.196472
340.061523	1233.865845	5744.481934	1369.455566	3.006013
340.430237	1138.953125	5857.473145	1358.156372	4.645593
340.798859	1340.077759	6015.661133	1414.652100	1.594974
341.167511	1175.110352	5816.796387	1446.289673	5.842259
341.536072	1258.723999	5913.968750	1403.352905	3.106795
341.904663	1238.385498	5945.606445	1387.534180	3.168508
342.273102	1242.905151	6035.999512	1396.573486	3.206036
342.641632	1392.053833	6359.154785	1663.233154	5.459509
343.010040	1297.140991	6144.471191	1457.588867	3.310026
343.378510	1190.929199	6225.825195	1362.676025	3.411129
343.746826	1220.306885	6320.737793	1351.376953	2.569784
344.115204	1297.140991	6309.438477	1459.848633	3.246169
344.483490	1274.542725	6440.508789	1398.833252	2.405949
344.851776	1242.905151	6591.916992	1398.833252	2.915082
345.220001	1256.464111	6781.742676	1529.903320	4.948877
345.588196	1224.826538	6881.175293	1389.793945	2.916500
345.956329	1263.243652	6752.364746	1430.470825	3.046520
346.324524	1274.542725	7003.205566	1419.171753	2.524656
346.692596	1301.660645	6946.709961	1439.510132	2.441954
347.060669	1376.234985	7220.149414	1584.139160	3.557618
347.428680	1238.385498	6720.727539	1416.911865	3.256389
347.796692	1229.346191	6774.963379	1367.195679	2.485738
348.164612	1299.400879	6429.209473	1459.848633	3.127753
348.532562	1297.140991	6777.223145	1547.981934	4.577321
348.900421	1342.337646	6623.554688	1518.604126	3.337611
349.268311	1283.582031	6139.951660	1403.352905	2.466264
349.636108	1213.527466	6334.296875	1416.911865	3.971755
350.003906	1249.684692	6393.052246	1401.093140	2.943761
350.371643	1202.228271	6510.563477	1437.250366	4.427416
350.739380	1308.440186	6860.836426	1516.344360	3.744404
351.107025	1256.464111	6677.790527	1346.857300	1.667363
351.474701	1199.968506	6657.452148	1444.029785	4.472048
351.842285	1170.590698	6643.893066	1340.077759	3.096614
352.209900	1202.228271	6865.356445	1396.573486	3.431765
352.577393	1340.077759	6854.057129	1527.643433	3.401639
352.944946	1236.125732	6849.537598	1464.368286	4.066022
353.312378	1163.811279	6811.120605	1471.147827	5.442176
353.679840	1215.787231	6722.987305	1423.691406	3.775134
354.047211	1213.527466	7204.330566	1421.431519	3.470387
354.414612	1154.771851	7308.282715	1383.014526	3.709146
354.781891	1184.149658	7470.990234	1493.746094	4.924515
355.149231	1213.527466	7687.933594	1428.211060	3.315881
355.516449	1222.566772	7676.634277	1500.525513	4.306722
355.883698	1188.669312	7837.082031	1405.612793	3.263087
356.250854	1281.322266	8112.781250	1527.643433	3.605689
356.618011	1247.424805	8230.291992	1500.525513	3.624596
356.985168	1181.889893	8282.268555	1514.084473	4.678547
357.352234	1299.400879	8591.864258	1464.368286	2.262163
357.719269	1233.865845	8779.430664	1534.422974	3.983229
358.086304	1220.306885	9079.987305	1509.564819	3.680276
358.453278	1251.944458	9233.655273	1529.903320	3.482447
358.820190	1310.700073	9231.395508	1473.407593	2.054208
359.187103	1215.787231	9714.999023	1552.501587	3.961713
359.554016	1238.385498	9550.031250	1581.879272	4.132681
359.920837	1204.488159	9450.598633	1545.722046	4.138119
360.287628	1231.606079	9328.568359	1557.021240	4.018978
360.654388	1254.204346	9333.087891	1462.108521	2.573427
361.021149	1233.865845	9818.951172	1484.706787	2.921823
361.387848	1220.306885	10264.136719	1642.894653	4.672664
361.754486	1254.204346	10833.613281	1568.320313	3.279074
362.121124	1238.385498	11364.672852	1597.698120	3.548316
362.487732	1163.811279	11803.080078	1660.973267	4.672896
362.854279	1202.228271	11907.031250	1629.335693	3.989867
363.220795	1328.778687	12013.243164	1649.674194	3.003384
363.587311	1317.479492	11739.804688	1685.831421	3.534259
363.953735	1186.409546	10881.070313	1520.864014	3.449883
364.320160	1231.606079	10487.860352	1532.163086	3.247070
364.686554	1218.047119	9859.627930	1466.628174	2.876569
365.052887	1209.007813	9348.907227	1538.942627	4.053303
365.419189	1195.448853	8998.633789	1520.864014	4.170286
365.785492	1157.031738	8867.563477	1484.706787	4.249708
366.151703	1242.905151	8709.375977	1545.722046	4.055690
366.517944	1331.038452	8718.415039	1561.540894	3.120221
366.884094	1335.558105	8695.816406	1656.453613	4.359840
367.250214	1260.983765	8625.761719	1491.486206	3.129795
367.616333	1285.841919	8569.266602	1525.383667	3.288862
367.982361	1215.787231	8334.244141	1518.604126	4.253968
368.348419	1141.212891	8316.166016	1430.470825	4.031496
368.714386	1231.606079	8280.008789	1482.446899	3.558832
369.080383	1340.077759	8327.464844	1604.477661	3.783959
369.446289	1358.156372	8255.150391	1604.477661	3.571429
369.812195	1319.739380	8277.749023	1554.761353	3.377718
370.178009	1209.007813	8049.505859	1450.809326	3.534853
370.543854	1184.149658	8126.340332	1471.147827	4.134116
370.909607	1238.385498	8171.536621	1534.422974	4.269883
371.275360	1166.071045	8090.182617	1453.069214	4.144910
371.641052	1249.684692	8657.399414	1480.187134	3.111654
372.006744	1220.306885	8539.888672	1502.785400	3.859216
372.372375	1290.361572	8505.991211	1595.438354	4.227999
372.737976	1238.385498	8596.383789	1423.691406	2.518428
373.103546	1251.944458	8585.084961	1554.761353	4.129430
373.469055	1267.763306	8594.124023	1527.643433	3.547193
373.834595	1319.739380	8731.973633	1547.981934	3.079268
374.199982	1215.787231	8594.124023	1527.643433	4.226646
374.565460	1290.361572	8508.250977	1552.501587	3.631810
374.930817	1211.267578	8741.013672	1486.966553	3.661464
375.296204	1179.630005	8887.902344	1502.785400	4.192319
375.661499	1260.983765	8792.989258	1498.265747	3.150316
376.026825	1394.313599	9147.782227	1618.036621	2.885457
376.391998	1179.630005	9226.875977	1505.045166	4.043808
376.757263	1179.630005	9285.631836	1500.525513	3.958740
377.122406	1175.110352	9475.457031	1482.446899	3.702695
377.487549	1229.346191	10017.815430	1543.462280	3.574184
377.852631	1118.614624	10304.813477	1527.643433	4.452645
378.217743	1240.645386	10632.489258	1615.776733	3.994225
378.582764	1211.267578	10435.883789	1529.903320	3.454190
378.947754	1270.023071	10625.708984	1529.903320	2.777779
379.312714	1272.282959	10411.025391	1595.438354	3.536104
379.677673	1184.149658	9916.124023	1599.958008	4.761905
380.042542	1231.606079	9647.204102	1543.462280	3.705693
380.407379	1272.282959	9685.621094	1511.824707	2.847167
380.772186	1224.826538	9265.292969	1502.785400	3.456999
381.136993	1209.007813	9276.592773	1462.108521	3.137255
381.501740	1204.488159	9267.552734	1568.320313	4.512331
381.866486	1220.306885	9263.033203	1489.226440	3.343637
382.231110	1206.747925	9172.640625	1432.730713	2.836880
382.595764	1195.448853	9301.450195	1536.682739	4.209645
382.960327	1209.007813	9231.395508	1502.785400	3.661972
383.324951	1224.826538	9376.024414	1493.746094	3.299142
383.689453	1209.007813	9389.583984	1541.202393	4.060772
384.053986	1229.346191	9640.424805	1597.698120	4.379366
384.418396	1229.346191	9597.488281	1462.108521	2.781529
384.782867	1222.566772	9807.651367	1462.108521	2.790208
385.147217	1249.684692	9979.398438	1658.713501	4.685478
385.511597	1215.787231	9999.737305	1550.241699	3.807563
385.875885	1238.385498	10173.744141	1536.682739	3.338392
386.240204	1251.944458	10327.412109	1642.894653	4.307769
386.604401	1312.959839	10058.493164	1602.217773	3.307493
386.968628	1279.062378	10562.434570	1636.115234	3.846155
387.332764	1265.503418	10255.097656	1534.422974	2.991454
387.696930	1242.905151	10496.899414	1595.438354	3.809525
388.061005	1360.416260	10711.583008	1681.311768	3.431609
388.425140	1229.346191	10521.757813	1613.516968	4.134242
388.789124	1292.621338	10591.812500	1588.658813	3.183475
389.153168	1301.660645	10695.763672	1620.296387	3.391870
389.517090	1161.551392	10503.678711	1584.139160	4.523464
389.881042	1218.047119	10429.104492	1547.981934	3.581943
390.244873	1199.968506	10331.931641	1588.658813	4.256372
390.608734	1215.787231	10594.072266	1649.674194	4.626506
390.972534	1231.606079	10657.346680	1527.643433	3.140733
391.336304	1195.448853	10996.321289	1613.516968	4.265622
391.700043	1233.865845	11125.130859	1606.737427	3.769706
392.063751	1195.448853	11511.561523	1606.737427	3.986856
392.427399	1186.409546	11536.419922	1597.698120	3.973799
392.791077	1351.376953	12026.802734	1773.964722	3.958510
393.154663	1283.582031	11866.354492	1731.027954	4.228060
393.518219	1267.763306	11570.317383	1568.320313	2.917306
393.881744	1274.542725	11821.158203	1627.075928	3.342619
394.245209	1188.669312	11344.334961	1658.713501	4.628394
394.608704	1166.071045	11518.341797	1593.178467	4.125737
394.972107	1279.062378	11457.326172	1618.036621	3.330374
395.335480	1240.645386	11751.103516	1731.027954	4.665663
395.698792	1150.252197	11579.356445	1647.414307	4.767064
396.062103	1403.352905	11773.702148	1690.351074	2.767488
396.425385	1249.684692	11192.925781	1701.650146	4.545454
396.788635	1209.007813	11104.792969	1516.344360	3.105732
397.151825	1161.551392	10892.369141	1568.320313	4.180213
397.514984	1202.228271	10858.471680	1534.422974	3.440207
397.878113	1233.865845	10591.812500	1708.429688	5.071239
398.241180	1154.771851	10406.505859	1588.658813	4.689791
398.604248	1195.448853	10440.403320	1651.933960	4.937668
398.967285	1288.101685	10284.475586	1615.776733	3.642301
399.330231	1256.464111	10399.726563	1685.831421	4.695997
399.693176	1227.086426	10092.389648	1568.320313	3.849095
400.056091	1238.385498	10370.348633	1552.501587	3.439743
400.418976	1193.188965	10139.846680	1511.824707	3.561506
400.781830	1206.747925	10313.853516	1608.997314	4.416874
401.144592	1175.110352	10085.610352	1563.800659	4.362161
401.507355	1202.228271	10087.870117	1599.958008	4.476095
401.870087	1193.188965	10063.012695	1599.958008	4.585988
402.232758	1204.488159	10234.758789	1579.619507	4.154154
402.595428	1378.494873	10433.624023	1640.634888	2.894934
402.958038	1256.464111	10474.300781	1584.139160	3.554793
403.320618	1186.409546	10388.427734	1599.958008	4.494106
403.683167	1274.542725	11118.351563	1611.257080	3.420570
404.045654	1229.346191	11129.651367	1660.973267	4.359735
404.408142	1159.291626	11220.043945	1604.477661	4.424978
404.770569	1211.267578	11285.579102	1631.595581	4.172275
405.132996	1263.243652	11764.662109	1816.901367	5.272219
405.495331	1199.968506	11827.937500	1604.477661	3.806082
405.857666	1294.881226	12169.171875	1679.051880	3.532834
406.219940	1247.424805	11983.866211	1712.949341	4.335929
406.582214	1199.968506	11787.260742	1710.689453	4.823905
406.944427	1258.723999	11742.064453	1575.099854	3.017892
407.306549	1240.645386	11620.033203	1647.414307	3.919007
407.668732	1229.346191	11717.206055	1606.737427	3.598363
408.030792	1238.385498	11333.035156	1620.296387	3.783300
408.392914	1168.330933	11461.845703	1649.674194	4.676180
408.754883	1245.165039	11163.548828	1654.193848	4.123946
409.116943	1260.983765	11296.877930	1611.257080	3.490205
409.478882	1251.944458	11436.987305	1649.674194	3.905037
409.840820	1385.274292	11705.907227	1724.248413	3.284431
410.202667	1190.929199	11649.411133	1715.209106	5.012963
410.564575	1236.125732	11780.481445	1667.752808	4.093442
410.926331	1175.110352	11816.638672	1708.429688	5.011680
411.288147	1202.228271	11936.409180	1638.375000	4.063158
411.649872	1236.125732	11719.465820	1670.012573	4.138823
412.011566	1227.086426	11606.474609	1584.139160	3.440017
412.373199	1236.125732	11527.380859	1728.768066	4.787000
412.734894	1213.527466	11525.121094	1618.036621	3.922858
413.096436	1240.645386	11272.020508	1588.658813	3.469249
413.458008	1199.968506	11425.688477	1618.036621	4.088398
413.819519	1260.983765	11733.025391	1606.737427	3.301683
414.181030	1229.346191	11751.103516	1590.918701	3.436427
414.542450	1222.566772	11529.640625	1636.115234	4.012278
414.903870	1229.346191	11739.804688	1692.610840	4.407654
415.265198	1179.630005	11834.716797	1728.768066	5.153764
415.626587	1157.031738	11730.765625	1640.634888	4.573627
415.987854	1242.905151	12110.416016	1712.949341	4.325224
416.349152	1186.409546	12316.060547	1647.414307	4.142131
416.710327	1258.723999	12435.831055	1615.776733	3.194500
417.071533	1279.062378	12435.831055	1676.792114	3.564919
417.432678	1213.527466	12871.978516	1681.311768	4.012405
417.793823	1136.693237	13201.913086	1703.910034	4.701255
418.154877	1175.110352	13638.059570	1708.429688	4.279239
418.515930	1258.723999	13986.073242	1640.634888	3.000710
418.876923	1224.826538	14435.778320	1737.807495	3.882998
419.237915	1299.400879	15188.301758	1873.397095	4.132769
419.598816	1197.708618	15482.079102	1794.303101	4.176554
419.959717	1227.086426	16047.036133	1706.169800	3.232692
420.320526	1179.630005	16704.646484	1882.436401	4.526928
420.681396	1224.826538	17432.310547	1954.750854	4.503625
421.042145	1206.747925	17556.601563	1911.814209	4.312371
421.402924	1249.684692	18347.541016	1846.279175	3.489294
421.763580	1238.385498	18754.308594	1898.255249	3.767256
422.124298	1202.228271	19448.076172	2092.600342	4.879861
422.484894	1288.101685	19635.642578	1988.648315	3.818204
422.845520	1209.007813	19332.826172	1925.373169	3.952618
423.206055	1218.047119	19445.816406	1929.892822	3.905282
423.566589	1197.708618	19131.701172	1911.814209	3.981855
423.927063	1145.732544	19292.148438	1970.569702	4.545455
424.287506	1240.645386	18711.373047	1866.617554	3.582977
424.647949	1227.086426	19115.880859	1957.010742	4.080344
425.008301	1227.086426	19378.021484	1966.050049	4.071215
425.368652	1242.905151	19511.351563	2013.506348	4.218208
425.728943	1209.007813	19341.865234	2036.104736	4.561316
426.089203	1114.094971	19262.771484	1975.089355	4.744117
426.449432	1181.889893	18998.371094	2058.702881	4.921359
426.809601	1222.566772	19032.267578	1975.089355	4.225352
427.169739	1229.346191	18749.789063	1997.687622	4.385399
427.529846	1355.896606	18480.871094	2022.545654	3.892847
427.889954	1358.156372	18164.494141	2047.403809	4.101116
428.250000	1270.023071	17450.388672	1855.318481	3.617319
428.609985	1213.527466	17258.302734	1821.421021	3.788732
428.969940	1231.606079	17036.839844	1834.979980	3.817558
429.329865	1297.140991	16677.527344	1875.656860	3.761387
429.689789	1283.582031	16397.308594	1895.995361	4.052034
430.049622	1283.582031	16460.583984	1787.523682	3.320430
430.409454	1276.802612	16139.688477	1794.303101	3.481831
430.769226	1290.361572	15583.771484	1850.798828	3.920949
431.128937	1254.204346	15540.834961	1814.641602	3.922809
431.488678	1199.968506	15680.943359	1780.744141	4.010612
431.848328	1179.630005	15963.421875	1724.248413	3.683888
432.207947	1190.929199	15581.511719	1789.783447	4.161432
432.567566	1254.204346	15782.635742	1715.209106	3.173121
432.927124	1240.645386	16254.940430	1810.121948	3.792896
433.286621	1231.606079	16408.607422	1830.460327	3.945801
433.646118	1299.400879	16736.283203	1895.995361	3.864734
434.005554	1260.983765	16799.558594	1839.499634	3.723095
434.364960	1279.062378	16860.574219	1893.735596	3.944888
434.724335	1188.669312	16623.291016	1850.798828	4.289898
435.083649	1306.180420	16756.621094	1875.656860	3.685827
435.442932	1220.306885	16388.269531	1914.073975	4.573897
435.802216	1337.817993	16813.117188	1970.569702	4.088785
436.161407	1254.204346	16537.417969	1864.357788	3.992311
436.520630	1254.204346	16286.577148	1850.798828	3.968731
436.879761	1220.306885	16763.400391	1803.342407	3.751091
437.238831	1202.228271	16975.824219	1866.617554	4.212034
437.597931	1233.865845	16930.628906	1828.200562	3.786352
437.956940	1222.566772	16876.392578	1794.303101	3.652374
438.315948	1213.527466	16980.343750	1884.696289	4.256845
438.674896	1270.023071	17127.234375	1846.279175	3.634032
439.033844	1236.125732	16539.677734	1837.239868	3.927939
439.392700	1193.188965	16822.156250	1902.774902	4.540197
439.751556	1279.062378	17134.013672	1902.774902	3.933866
440.110352	1147.992432	17823.259766	1823.680908	4.052040
440.469116	1288.101685	17877.496094	1966.050049	4.086637
440.827850	1163.811279	18114.777344	1862.097900	4.119450
441.186554	1310.700073	19167.857422	1925.373169	3.442166
441.545197	1229.346191	19154.298828	1895.995361	3.719112
441.903809	1276.802612	19470.673828	2079.041504	4.409391
442.262390	1260.983765	18980.292969	1993.167969	4.132126
442.620941	1260.983765	18923.796875	1984.128662	4.094166
442.979462	1224.826538	19131.701172	1975.089355	4.189803
443.337921	1240.645386	18625.500000	2029.325195	4.536591
443.696350	1256.464111	18625.500000	1954.750854	4.020297
444.054718	1229.346191	17945.291016	1954.750854	4.339597
444.413086	1376.234985	18923.796875	1893.735596	2.949131
444.771423	1249.684692	18989.332031	2018.026001	4.331210
445.129669	1247.424805	18150.935547	1902.774902	3.877006
445.487915	1202.228271	17271.863281	1814.641602	3.810997
445.846130	1175.110352	18291.044922	1873.397095	4.079747
446.204285	1163.811279	17888.794922	1977.349121	4.864207
446.562408	1279.062378	19023.228516	1979.609009	3.948039
446.920532	1170.590698	19631.123047	1936.672241	4.149834
447.278595	1331.038452	20288.732422	2133.277344	4.231733
447.636566	1202.228271	20810.751953	2065.482422	4.402443
447.994568	1256.464111	21423.166016	2065.482422	4.011654
448.352509	1220.306885	21350.851563	2094.860107	4.344409
448.710419	1150.252197	21090.970703	2074.521729	4.635087
449.068237	1218.047119	20668.382813	2067.742188	4.368537
449.426056	1267.763306	21215.261719	2065.482422	3.999094
449.783844	1251.944458	20485.337891	2022.545654	4.006580
450.141602	1265.503418	20049.191406	2083.561035	4.355149
450.499329	1218.047119	19857.105469	2004.467041	4.219204
450.856964	1292.621338	19228.873047	1932.152588	3.565579
451.214630	1199.968506	19246.951172	2015.766235	4.520411
451.572235	1209.007813	18851.482422	1963.790161	4.278211
451.929779	1184.149658	18975.773438	1952.491089	4.318557
452.287323	1229.346191	18643.578125	2031.585083	4.606800
452.644806	1306.180420	18752.048828	2008.986694	4.028497
453.002258	1292.621338	18844.703125	1929.892822	3.630746
453.359650	1292.621338	18309.123047	2063.222656	4.528553
453.717010	1369.455566	18444.712891	1979.609009	3.573319
454.074341	1283.582031	18144.156250	2020.285889	4.369388
454.431641	1276.802612	18001.787109	1902.774902	3.742738
454.788910	1240.645386	17588.238281	1947.971436	4.326790
455.146118	1233.865845	17534.001953	1893.735596	4.048247
455.503296	1209.007813	17285.421875	1859.838135	4.048355
455.860443	1184.149658	17359.996094	1853.058594	4.135233
456.217560	1285.841919	17179.208984	1911.814209	3.938576
456.574615	1294.881226	17369.035156	1984.128662	4.287923
456.931641	1297.140991	17039.099609	2015.766235	4.565031
457.288635	1263.243652	17258.302734	1866.617554	3.772252
457.645599	1247.424805	17063.958984	1907.294556	4.172025
458.002502	1299.400879	17475.246094	1990.908081	4.274937
458.359375	1199.968506	17425.531250	1859.838135	4.066852
458.716217	1247.424805	18062.802734	2042.884155	4.730546
459.073029	1204.488159	18982.552734	2140.056641	5.262488
459.429779	1283.582031	19958.796875	2140.056641	4.586157
459.786499	1274.542725	21323.732422	2076.781494	4.001353
460.143219	1272.282959	22751.945313	2108.419189	3.892688
460.499847	1170.590698	22354.214844	2248.528564	5.088543
460.856476	1258.723999	23398.255859	2264.347168	4.542206
461.213043	1292.621338	23536.105469	2164.914795	3.921568
461.569550	1206.747925	23217.468750	2033.844849	3.757700
461.926056	1346.857300	22652.511719	2293.725098	4.444209
462.282501	1256.464111	21780.218750	2108.419189	4.151069
462.638916	1254.204346	20702.281250	1988.648315	3.776435
462.995331	1175.110352	20449.179688	2090.340576	4.748505
463.351654	1231.606079	20227.716797	1966.050049	3.866286
463.707947	1272.282959	19741.853516	1934.412476	3.584975
464.064209	1351.376953	19280.849609	2024.805542	3.755987
464.420441	1240.645386	19036.787109	1925.373169	3.847619
464.776642	1209.007813	18406.296875	1905.034668	4.047306
465.132782	1249.684692	18580.302734	1975.089355	4.185683
465.488892	1254.204346	18415.335938	1898.255249	3.752963
465.844971	1206.747925	18695.554688	1966.050049	4.341646
466.201019	1254.204346	18733.970703	2002.207275	4.279250
466.557007	1242.905151	19000.630859	1981.868774	4.161364
466.912964	1251.944458	19427.738281	1966.050049	3.928883
467.268890	1213.527466	19622.083984	1920.853516	3.842376
467.624756	1220.306885	19364.462891	1947.971436	4.010462
467.980591	1242.905151	20046.931641	2027.065430	4.170172
468.336426	1213.527466	19755.412109	2063.222656	4.582572
468.692169	1213.527466	19617.564453	1934.412476	3.916994
469.047913	1211.267578	19005.150391	1979.609009	4.318009
469.403625	1218.047119	19255.990234	1979.609009	4.222000
469.759247	1134.433472	18935.095703	1977.349121	4.735305
470.114838	1265.503418	18600.640625	1898.255249	3.650112
470.470459	1175.110352	18666.175781	1968.309814	4.534883
470.825958	1141.212891	18295.564453	1857.578247	4.175998
471.181488	1247.424805	18288.785156	1959.270508	4.177165
471.536926	1211.267578	18336.242188	1959.270508	4.367907
471.892365	1184.149658	18385.957031	1936.672241	4.374672
472.247742	1254.204346	18765.609375	1995.427734	4.232804
472.603058	1181.889893	18593.861328	1966.050049	4.503569
472.958374	1215.787231	19113.621094	2063.222656	4.734849
473.313629	1172.850586	18991.591797	1997.687622	4.629042
473.668884	1238.385498	19231.132813	1990.908081	4.182366
474.024048	1227.086426	19622.083984	2002.207275	4.213759
474.379211	1265.503418	19457.115234	1966.050049	3.850932
474.734314	1242.905151	19574.626953	2013.506348	4.203649
475.089417	1179.630005	19330.564453	1999.947388	4.519423
475.444458	1193.188965	19518.130859	2097.120117	4.932792
475.799438	1204.488159	19344.125000	1988.648315	4.322910
476.154388	1150.252197	19599.484375	1999.947388	4.605586
476.509308	1224.826538	20205.119141	2036.104736	4.274319
476.864197	1270.023071	20374.605469	2013.506348	3.891649
477.219025	1227.086426	20675.162109	2065.482422	4.310946
477.573822	1188.669312	20977.980469	2081.301270	4.510677
477.928619	1213.527466	21683.046875	2108.419189	4.371826
478.283325	1222.566772	21696.605469	2094.860107	4.260485
478.638000	1168.330933	21994.902344	2097.120117	4.459635
478.992676	1186.409546	22458.166016	2112.938721	4.355678
479.347260	1453.069214	22903.353516	2320.843018	4.045512
479.701843	1249.684692	23086.398438	2135.537109	4.056711
480.056366	1184.149658	23081.878906	2253.048096	4.881321
480.410858	1281.322266	23811.802734	2205.591797	4.102307
480.765320	1251.944458	24220.832031	2178.473877	4.033845
481.119751	1274.542725	25007.251953	2212.371338	3.951629
481.474091	1204.488159	26186.882813	2363.779785	4.640434
481.828430	1188.669312	27680.628906	2372.819092	4.469846
482.182709	1258.723999	29239.910156	2393.157471	4.054272
482.536987	1283.582031	31205.958984	2564.904297	4.282154
482.891174	1254.204346	34148.253906	2750.210205	4.547953
483.245361	1190.929199	38288.257813	2804.446045	4.349415
483.599518	1238.385498	44403.351563	3217.994629	4.586148
483.953644	1231.606079	49738.804688	3319.686768	4.304682
484.307678	1242.905151	53241.539063	3672.219971	4.671882
484.661713	1202.228271	55250.523438	3667.700195	4.561609
485.015686	1242.905151	56247.109375	3801.030029	4.650781
485.369659	1175.110352	55659.554688	3760.353027	4.744919
485.723572	1254.204346	53661.867188	3572.787354	4.424129
486.077423	1202.228271	51004.308594	3405.560303	4.424177
486.431274	1193.188965	48538.835938	3199.916016	4.238461
486.785034	1270.023071	47097.066406	3197.656006	4.206322
487.138794	1125.394165	46247.371094	3125.341553	4.432313
487.492523	1285.841919	47140.003906	3355.843994	4.514317
487.846191	1242.905151	48152.406250	3195.396240	4.162251
488.199829	1247.424805	48421.328125	3297.088379	4.344910
488.553436	1288.101685	48963.683594	3362.623535	4.351330
488.906982	1211.267578	48127.546875	3274.490234	4.397669
489.260529	1197.708618	46941.140625	3283.529541	4.559825
489.613983	1249.684692	45314.062500	3215.734619	4.461767
489.967438	1263.243652	42927.683594	3109.522705	4.431306
490.320831	1256.464111	41115.304688	3089.184326	4.598027
490.674194	1236.125732	40310.804688	3039.468262	4.615118
491.027527	1168.330933	40114.199219	2860.941650	4.346060
491.380798	1199.968506	41099.484375	3012.350098	4.542365
491.734070	1238.385498	42839.550781	3231.553467	4.791135
492.087250	1258.723999	43671.167969	3161.498779	4.486360
492.440430	1267.763306	43757.042969	3048.507568	4.191043
492.793549	1227.086426	43354.792969	3059.806641	4.350391
493.146637	1195.448853	42602.269531	3260.931152	4.988266
493.499695	1166.071045	39998.949219	2912.917725	4.498370
493.852692	1195.448853	37339.132813	2824.784424	4.507940
494.205658	1231.606079	35074.785156	2883.540039	4.881143
494.558594	1218.047119	32988.964844	2752.469971	4.829646
494.911499	1274.542725	30663.601563	2601.061523	4.513649
495.264374	1274.542725	29416.175781	2519.707764	4.424637
495.617188	1292.621338	28392.474609	2512.928223	4.503002
495.969940	1202.228271	28469.308594	2411.236084	4.433947
496.322693	1170.590698	27834.296875	2540.046143	5.136028
496.675385	1292.621338	27931.468750	2503.888916	4.546997
497.028015	1358.156372	28500.945313	2497.109619	4.196154
497.380676	1270.023071	28595.859375	2510.668457	4.540192
497.733246	1227.086426	28311.121094	2494.849609	4.680851
498.085785	1841.759521	29391.318359	3046.247559	4.372077
498.438263	1256.464111	28419.591797	2553.605225	4.775375
498.790710	1263.243652	28274.962891	2551.345459	4.768678
499.143158	1292.621338	27664.810547	2508.408691	4.610112
499.495544	1251.944458	27310.017578	2560.384766	5.021247
499.847870	1086.977051	27226.402344	2447.393311	5.204461
500.200165	1209.007813	26241.119141	2433.834229	4.893021
500.552429	1154.771851	26143.945313	2524.227539	5.480196
500.904663	1229.346191	25278.431641	2458.692383	5.111821
501.256866	1166.071045	25563.169922	2395.417236	5.038903
501.609009	1294.881226	24679.578125	2395.417236	4.706223
501.961090	1215.787231	24329.304688	2381.858398	5.044975
502.313171	1224.826538	24618.562500	2429.314697	5.148764
502.665253	1168.330933	24223.091797	2445.133545	5.538130
503.017181	1242.905151	24087.501953	2327.622559	4.748245
503.369110	1163.811279	24141.738281	2388.637695	5.330448
503.721069	1265.503418	24195.974609	2488.070313	5.331626
504.072937	1238.385498	24652.458984	2381.858398	4.883699
504.424774	1281.322266	24338.343750	2587.502686	5.665000
504.776520	1245.165039	24324.785156	2501.629150	5.444041
505.128265	1218.047119	24507.830078	2479.031006	5.414322
505.480042	1292.621338	24354.162109	2499.369385	5.232729
505.831665	1270.023071	24550.767578	2436.094238	5.008737
506.183289	1134.433472	23918.015625	2497.109619	5.980957
506.534882	1254.204346	24216.312500	2616.880371	5.934455
506.886505	1227.086426	23913.496094	2510.668457	5.657934
507.237946	1143.472778	24089.761719	2524.227539	6.017334
507.589417	1163.811279	24003.888672	2630.439453	6.421292
507.940857	1337.817993	24060.384766	2711.793213	6.046743
508.292297	1247.424805	24302.185547	2720.832520	6.390904
508.643616	1242.905151	24401.619141	2657.557373	6.108509
508.994904	1245.165039	24751.892578	2664.336670	6.037300
509.346191	1308.440186	24792.568359	2845.123047	6.543495
509.697479	1199.968506	25007.251953	2736.651123	6.454674
510.048645	1143.472778	25407.242188	2689.194824	6.370494
510.399780	1258.723999	25470.517578	2924.217041	6.878850
510.750916	1265.503418	25825.310547	2849.642578	6.450129
511.102051	1204.488159	25967.679688	2910.657959	6.889943
511.453033	1204.488159	26026.435547	2917.437500	6.900947
511.804016	1247.424805	26315.693359	2910.657959	6.634814
512.154968	1166.071045	26595.912109	3043.987793	7.384697
512.505920	1231.606079	26738.281250	3062.066406	7.176397
512.856750	1206.747925	26627.548828	3109.522705	7.485109
513.207581	1308.440186	26514.556641	2982.972412	6.643356
513.558411	1263.243652	26510.037109	3041.728027	7.044397
513.909180	1242.905151	26388.007813	3141.160400	7.549204
514.259888	1227.086426	26507.777344	3077.885254	7.320998
514.610535	1229.346191	26039.994141	3288.049072	8.297659
514.961182	1179.630005	25809.490234	3141.160400	7.964034
515.311829	1258.723999	25759.775391	3217.994629	7.996680
515.662354	1355.896606	25888.585938	3247.372314	7.710022
516.012878	1197.708618	26098.750000	3321.946533	8.530719
516.363281	1125.394165	26295.353516	3380.702148	8.960317
516.713745	1168.330933	26202.701172	3349.064453	8.710958
517.064209	1222.566772	26733.759766	3351.324463	8.344407
517.414490	1242.905151	27011.718750	3337.765381	8.129440
517.764832	1199.968506	27922.429688	3615.724121	9.040169
518.115173	1150.252197	28912.234375	3617.984131	8.888889
518.465393	1260.983765	29967.574219	3866.564941	9.076595
518.815552	1184.149658	30566.427734	4006.674316	9.606215
519.165710	1303.920532	31359.626953	3925.320557	8.721805
519.515869	1168.330933	31034.212891	4117.405762	9.874393
519.865967	1240.645386	31481.658203	4033.792236	9.236287
520.216003	1263.243652	30842.126953	3941.139404	9.053404
520.565918	1245.165039	30575.466797	4160.342773	9.939134
520.915955	1199.968506	29522.388672	4092.547852	10.213037
521.265869	1240.645386	29151.775391	4013.453857	9.934419
521.615723	1193.188965	28575.519531	4092.547852	10.588430
521.965576	1310.700073	28584.558594	4182.940918	10.531112
522.315369	1229.346191	27933.728516	4088.028076	10.704917
522.665161	1154.771851	27642.210938	4047.351318	10.920570
523.014832	1242.905151	27847.855469	4185.200684	11.059202
523.364502	1254.204346	27997.003906	4112.886230	10.689539
523.714172	1199.968506	28168.751953	4219.098145	11.194905
524.063782	1285.841919	28824.101563	4395.364746	11.291647
524.413330	1199.968506	28844.439453	4429.262207	11.681518
524.762817	1249.684692	30012.771484	4549.033203	11.470774
525.112366	1294.881226	30772.072266	4795.354004	11.875191
525.461792	1181.889893	32679.367188	4906.085938	11.823792
525.811157	1353.636719	33400.253906	5186.304199	11.959663
526.160522	1109.575317	35361.781250	5324.153809	12.304546
526.509827	1324.259033	35777.589844	5484.601563	12.075298
526.859131	1138.953125	37504.097656	5717.363770	12.590107
527.208313	1204.488159	39382.015625	5825.835449	12.104889
527.557495	1346.857300	40498.371094	6178.368652	12.340548
527.906738	1197.708618	43241.800781	6533.161621	12.690137
528.255859	1181.889893	46900.460938	7159.133789	13.073997
528.604919	1202.228271	50638.218750	7807.704590	13.361675
528.953918	1204.488159	53096.910156	8135.379395	13.356268
529.302917	1288.101685	54091.234375	8546.667969	13.746469
529.651917	1358.156372	54606.472656	8781.690430	13.941350
530.000793	1202.228271	54036.996094	8659.659180	14.114627
530.349609	1270.023071	52416.703125	8343.283203	13.829364
530.698547	1260.983765	50003.207031	7925.215332	13.672400
531.047302	1392.053833	46394.261719	7425.793457	13.407653
531.396057	1358.156372	44249.683594	7093.599121	13.371972
531.744751	1199.968506	41971.777344	6711.687988	13.518457
532.093445	1193.188965	40710.792969	6580.618164	13.632985
532.442139	1308.440186	39822.683594	6571.578613	13.665435
532.790710	1258.723999	39924.375000	6639.373535	13.915837
533.139160	1218.047119	41293.828125	6826.939453	13.995716
533.487732	1231.606079	41879.125000	6994.166504	14.176906
533.836243	1285.841919	42755.937500	7150.094727	14.140921
534.184631	1145.732544	43058.753906	7138.795410	14.298810
534.533020	1202.228271	42798.875000	7050.662109	14.059867
534.881348	1218.047119	41264.453125	6910.552734	14.214773
535.229736	1184.149658	40010.246094	6709.428223	14.230836
535.577942	1267.763306	38295.039063	6655.192383	14.549893
535.926086	1328.778687	37302.972656	6402.091797	14.102645
536.274353	1195.448853	36509.773438	6449.547852	14.878097
536.622498	1245.165039	36451.019531	6313.958496	14.397587
536.970642	1308.440186	36604.687500	6311.698730	14.175045
537.318665	1179.630005	35766.292969	6126.392578	14.302515
537.666687	1195.448853	35721.093750	6173.849121	14.419428
538.014709	1240.645386	34699.652344	6083.456055	14.473862
538.362610	1238.385498	34234.128906	5938.827148	14.245600
538.710510	1184.149658	33169.750000	5873.291992	14.660168
539.058411	1215.787231	32073.732422	5602.112793	14.214575
539.406250	1213.527466	31700.861328	5717.363770	14.772812
539.753967	1204.488159	31727.980469	5640.529785	14.533204
540.101746	1274.542725	32161.867188	5837.134766	14.771729
540.449463	1179.630005	33786.683594	5959.165527	14.657981
540.797119	1274.542725	35926.738281	6386.272949	14.751534
541.144714	1270.023071	38150.410156	6691.349609	14.699756
541.492249	1206.747925	40358.261719	7034.843262	14.886002
541.839844	1240.645386	42001.156250	7294.723633	14.852802
542.187378	1288.101685	43395.468750	7394.155762	14.501154
542.534790	1233.865845	43472.304688	7617.878906	15.114226
542.882202	1233.865845	43187.566406	7477.769531	14.882845
543.229553	1159.291626	41809.070313	7172.692871	14.793197
543.576965	1245.165039	40200.074219	6824.679199	14.323006
543.924194	1231.606079	38245.324219	6799.821289	15.043653
544.271423	1256.464111	36631.804688	6372.713867	14.462759
544.618652	1242.905151	35058.964844	6248.423340	14.802193
544.965881	1324.259033	33736.964844	6106.054199	14.752841
545.312988	1161.551392	32164.126953	5841.654297	15.095852
545.660034	1310.700073	31481.658203	5861.992676	15.085011
546.007141	1301.660645	30530.271484	5464.263184	14.241533
546.354126	1186.409546	29908.818359	5414.546875	14.720692
546.701111	1202.228271	29879.441406	5604.372559	15.350671
547.048035	1272.282959	29929.156250	5477.822266	14.675499
547.394836	1204.488159	29635.378906	5486.861328	15.062395
547.741699	1197.708618	28627.496094	5437.145020	15.455594
548.088562	1254.204346	28647.833984	5308.334961	14.799539
548.435303	1190.929199	27874.972656	5161.446289	14.879744
548.781921	1204.488159	26894.208984	5066.533691	15.033427
549.128662	1215.787231	26055.812500	4860.889160	14.674309
549.475342	1215.787231	25267.132813	4738.858398	14.648126
549.821899	1249.684692	24469.414063	4630.386719	14.559611
550.168457	1285.841919	24130.439453	4542.253418	14.254624
550.515015	1337.817993	23176.792969	4650.725098	15.169702
550.861511	1254.204346	22810.699219	4472.198730	14.928190
551.207886	1288.101685	22098.853516	4460.899902	15.245957
551.554260	1288.101685	22275.121094	4463.159668	15.128675
551.900635	1220.306885	22010.720703	4275.593750	14.695652
552.247009	1188.669312	22069.476563	4406.664063	15.411256
552.593262	1249.684692	22135.011719	4436.041504	15.256438
552.939392	1310.700073	22284.160156	4393.104980	14.696692
553.285645	1229.346191	22553.080078	4445.081055	15.080543
553.631775	1224.826538	22412.970703	4467.679199	15.305033
553.977905	1177.370239	21857.052734	4526.434570	16.194952
554.323975	1260.983765	21965.523438	4304.971680	14.702031
554.669983	1213.527466	21983.603516	4300.452148	14.862367
555.015991	1163.811279	21572.314453	4302.711914	15.380357
555.361877	1163.811279	21418.646484	4264.294922	15.307375
555.707825	1188.669312	21050.294922	4198.759766	15.155308
556.053711	1197.708618	20577.990234	4214.578613	15.566699
556.399536	1258.723999	20340.708984	4194.240234	15.383704
556.745239	1166.071045	20374.605469	4133.224609	15.447058
557.091003	1199.968506	20015.292969	4149.043457	15.673793
557.436707	1245.165039	20019.812500	4146.783691	15.454983
557.782410	1229.346191	19680.837891	4004.414551	15.039804
558.127991	1238.385498	19710.216797	4085.768311	15.414729
558.473511	1231.606079	19875.183594	4097.067383	15.369697
558.819092	1190.929199	19341.865234	3950.178711	15.201694
559.164612	1202.228271	19093.283203	3875.604248	14.942529
559.510010	1215.787231	19113.621094	3857.525635	14.760100
559.855408	1163.811279	19389.320313	4017.973389	15.660259
560.200806	1206.747925	19231.132813	3889.163330	14.882148
560.546143	1150.252197	19206.275391	3855.265869	14.981226
560.891357	1254.204346	19172.376953	3956.958252	15.083871
561.236633	1272.282959	19287.628906	3843.966797	14.274962
561.581848	1181.889893	19538.468750	3893.682861	14.772867
561.927002	1204.488159	19244.691406	3864.305176	14.743830
562.272095	1233.865845	19533.949219	3873.344482	14.423314
562.617126	1247.424805	19606.263672	3909.501709	14.500246
562.962219	1279.062378	19298.927734	3751.313721	13.719589
563.307251	1288.101685	19398.359375	3947.918945	14.686800
563.652161	1227.086426	19443.556641	3819.108643	14.229003
563.997009	1272.282959	19124.921875	3796.510498	14.139240
564.341919	1303.920532	19075.205078	3853.006104	14.343844
564.686768	1218.047119	19427.738281	3782.951416	14.085381
565.031555	1227.086426	19488.753906	3726.455811	13.686424
565.376282	1364.935913	19848.066406	3886.903564	13.644700
565.721008	1229.346191	20024.332031	3848.486328	13.935313
566.065674	1166.071045	20381.384766	3751.313721	13.454074
566.410278	1233.865845	20679.681641	3952.438477	13.980245
566.754822	1145.732544	20803.972656	3975.036865	14.392459
567.099365	1170.590698	21258.199219	3932.100098	13.747327
567.443909	1188.669312	21407.347656	3911.761719	13.468202
567.788330	1254.204346	21133.908203	3900.462402	13.311356
568.132751	1224.826538	20813.011719	3828.147949	13.290262
568.477112	1161.551392	20469.517578	3782.951416	13.576778
568.821533	1190.929199	20295.511719	3762.613037	13.461084
569.165771	1272.282959	19992.695313	3744.534424	13.206181
569.510010	1186.409546	20358.787109	3764.872803	13.448846
569.854248	1288.101685	19841.287109	3708.377197	13.045067
570.198364	1251.944458	20022.072266	3710.636963	13.098965
570.542542	1220.306885	20268.394531	3624.763428	12.623086
570.886536	1222.566772	20026.591797	3663.180664	12.979209
571.230591	1166.071045	20629.966797	3697.077881	13.003598
571.574646	1147.992432	20487.597656	3656.401123	12.970320
571.918518	1209.007813	20706.800781	3588.606201	12.204450
572.262451	1254.204346	21515.818359	3636.062744	11.755522
572.606323	1258.723999	21316.953125	3760.353027	12.471834
572.950195	1199.968506	21454.802734	3681.259277	12.250363
573.293945	1188.669312	21201.703125	3733.235107	12.714544
573.637695	1179.630005	21122.609375	3728.715576	12.781869
573.981384	1209.007813	21122.609375	3688.038574	12.448933
574.325134	1303.920532	20880.806641	3613.464355	11.797299
574.668701	1197.708618	20609.626953	3464.315674	11.676368
575.012268	1195.448853	20514.714844	3450.756836	11.673882
575.355774	1138.953125	20519.234375	3421.378906	11.777052
575.699341	1193.188965	20365.566406	3563.748047	12.364450
576.042725	1315.219727	20480.818359	3579.566895	11.814644
576.386169	1256.464111	20336.189453	3412.339600	11.299301
576.729553	1249.684692	19893.261719	3349.064453	11.260607
577.072876	1383.014526	19640.162109	3355.843994	10.805792
577.416138	1236.125732	19219.833984	3233.813232	11.108317
577.759399	1249.684692	18966.732422	3254.151855	11.313777
578.102600	1132.173584	18514.767578	3193.136475	11.856475
578.445801	1152.512085	18031.164063	3080.145020	11.420538
578.788940	1152.512085	17952.070313	3159.239014	11.945117
579.131897	1240.645386	17658.292969	3059.806641	11.080523
579.474976	1242.905151	17330.617188	3032.688721	11.125159
579.817993	1209.007813	16923.849609	3010.090332	11.461029
580.160950	1195.448853	16519.339844	2949.074951	11.443739
580.503845	1231.606079	16510.300781	2962.634033	11.329685
580.846680	1202.228271	16225.562500	2890.319580	11.236463
581.189514	1242.905151	16426.687500	2897.099121	10.894479
581.532349	1285.841919	15995.059570	2754.729980	9.986174
581.875061	1159.291626	16105.791016	2784.107666	10.870880
582.217773	1220.306885	16182.625977	2919.697266	11.357800
582.560425	1324.259033	16053.815430	2933.256348	10.923596
582.903076	1256.464111	15717.100586	2795.406738	10.642288
583.245667	1175.110352	15529.535156	2747.950439	10.957179
583.588135	1188.669312	15870.769531	2738.911133	10.558720
583.930664	1270.023071	15667.384766	2766.029053	10.390835
584.273071	1159.291626	15491.118164	2684.675293	10.643331
584.615479	1245.165039	15337.450195	2664.336670	10.070558
584.957825	1247.424805	15586.031250	2671.116211	9.929078
585.300232	1215.787231	15308.072266	2732.131592	10.760102
585.642517	1188.669312	15289.993164	2639.478760	10.288463
585.984680	1251.944458	15436.882813	2766.029053	10.673889
586.326843	1254.204346	15233.498047	2734.391357	10.588425
586.669067	1301.660645	15253.835938	2741.170898	10.317461
587.011230	1265.503418	14978.137695	2788.627197	11.107448
587.353271	1238.385498	15181.521484	2689.194824	10.405187
587.695251	1161.551392	15138.584961	2686.935059	10.913501
588.037231	1222.566772	15097.908203	2643.998291	10.244299
588.379211	1209.007813	15253.835938	2587.502686	9.814964
588.721069	1254.204346	15253.835938	2714.052979	10.427765
589.062927	1213.527466	15393.945313	2662.076904	10.215139
589.404785	1328.778687	15470.780273	2668.856445	9.475870
589.746582	1163.811279	15491.118164	2582.982910	9.905362
590.088257	1238.385498	15518.236328	2698.234131	10.223137
590.429932	1220.306885	15796.195313	2695.974365	10.124031
590.771606	1206.747925	15680.943359	2616.880371	9.742390
591.113220	1233.865845	15771.336914	2612.360840	9.482358
591.454773	1369.455566	15766.817383	2752.469971	9.606027
591.796265	1247.424805	15586.031250	2546.825684	9.062254
592.137817	1279.062378	15321.630859	2616.880371	9.526875
592.479248	1177.370239	15174.742188	2605.581299	10.203423
592.820618	1181.889893	15283.213867	2567.164063	9.823717
593.161926	1175.110352	14973.618164	2553.605225	9.990173
593.503296	1249.684692	15154.404297	2524.227539	9.166261
593.844604	1215.787231	15163.443359	2641.738525	10.223591
594.185791	1281.322266	15208.639648	2582.982910	9.346097
594.526917	1249.684692	15466.259766	2519.707764	8.933396
594.868103	1265.503418	15473.040039	2564.904297	9.145856
595.209229	1267.763306	15633.487305	2540.046143	8.856379
595.550232	1308.440186	15703.541992	2508.408691	8.335950
595.891235	1213.527466	16051.555664	2607.841064	9.396893
596.232178	1227.086426	15997.319336	2659.817139	9.700123
596.573181	1342.337646	16449.285156	2734.391357	9.214660
596.914063	1254.204346	16736.283203	2596.541992	8.670267
597.254883	1233.865845	17285.421875	2741.170898	9.390399
597.595703	1258.723999	17233.445313	2770.548584	9.463856
597.936462	1213.527466	17346.437500	2763.769287	9.609189
598.277161	1218.047119	16969.044922	2655.297363	9.124820
598.617798	1224.826538	16487.703125	2734.391357	9.890434
598.958435	1199.968506	16306.916016	2598.801758	9.259536
599.299072	1254.204346	15954.382813	2571.683838	8.962337
599.639587	1279.062378	15572.471680	2592.022217	9.185771
599.980103	1247.424805	15120.506836	2531.006836	9.252320
600.320557	1308.440186	14957.798828	2519.707764	8.874172
600.661072	1179.630005	14722.777344	2427.054932	9.210746
601.001404	1202.228271	14390.582031	2526.487305	10.041124
601.341675	1279.062378	14508.093750	2363.779785	8.199523
601.681946	1222.566772	14275.331055	2388.637695	8.933517
602.022278	1181.889893	14460.636719	2413.495850	9.275017
602.362427	1157.031738	14381.542969	2300.504395	8.646615
602.702576	1213.527466	14709.217773	2436.094238	9.058942
603.042725	1181.889893	14957.798828	2503.888916	9.596456
603.382813	1281.322266	14880.964844	2499.369385	8.956464
603.722839	1256.464111	15511.457031	2555.864990	9.115409
604.062805	1326.518799	16001.838867	2603.321289	8.700338
604.402771	1385.274292	16535.158203	2709.533203	8.741050
604.742737	1290.361572	16505.781250	2601.061523	8.614287
605.082581	1231.606079	16831.195313	2616.880371	8.880198
605.422363	1229.346191	17258.302734	2630.439453	8.741014
605.762146	1184.149658	17185.988281	2535.526611	8.445135
606.101929	1222.566772	16980.343750	2596.541992	8.719347
606.441589	1206.747925	16573.576172	2607.841064	9.117647
606.781189	1265.503418	16191.665039	2510.668457	8.342165
607.120850	1218.047119	15687.723633	2485.810303	8.761517
607.460388	1166.071045	15425.583008	2519.707764	9.492868
607.799927	1215.787231	15258.356445	2451.912842	8.802703
608.139404	1215.787231	14740.855469	2338.921631	8.304094
608.478821	1247.424805	14910.342773	2418.015625	8.567649
608.818298	1231.606079	14840.288086	2323.102783	8.020591
609.157593	1260.983765	15030.113281	2501.629150	9.010340
609.496887	1251.944458	15186.041992	2512.928223	9.049626
609.836182	1163.811279	15495.637695	2395.417236	8.593503
610.175415	1190.929199	15552.133789	2359.260010	8.135325
610.514526	1328.778687	15567.952148	2596.541992	8.903349
610.853699	1206.747925	15427.842773	2460.952393	8.819324
611.192688	1186.409546	15238.017578	2515.188232	9.456417
611.531799	1132.173584	15073.049805	2332.142090	8.607554
611.870850	1195.448853	14851.586914	2467.731689	9.316565
612.209778	1227.086426	14304.708984	2361.519775	8.674614
612.548645	1229.346191	14130.702148	2305.024170	8.337713
612.887573	1233.865845	13945.396484	2408.976318	9.244446
613.226440	1281.322266	13529.587891	2300.504395	8.321033
613.565186	1231.606079	13348.801758	2244.008789	8.355091
613.903931	1267.763306	13253.888672	2277.906250	8.427602
614.242676	1175.110352	13075.362305	2173.954102	8.393467
614.581360	1297.140991	13027.906250	2192.032715	7.628588
614.919983	1179.630005	12786.104492	2151.355957	8.372274
615.258484	1276.802612	12754.466797	2128.757568	7.422721
615.597046	1213.527466	12612.097656	2185.253418	8.524981
615.935547	1233.865845	12447.130859	1995.427734	6.791616
616.273987	1152.512085	12548.822266	2027.065430	7.674004
616.612366	1340.077759	12616.617188	2187.513184	7.515031
616.950806	1222.566772	12756.726563	2144.576416	7.993730
617.289124	1303.920532	12449.390625	2131.017334	7.420924
617.627380	1254.204346	12607.578125	2176.214111	8.121020
617.965515	1274.542725	12720.569336	2171.694336	7.838105
618.303772	1283.582031	12600.798828	2203.332031	8.126998
618.641968	1242.905151	12420.012695	2153.615723	8.147999
618.980042	1184.149658	12478.768555	2060.962891	7.763106
619.318054	1231.606079	12623.397461	2099.379883	7.617536
619.656128	1199.968506	12575.940430	2081.301270	7.747319
619.994080	1199.968506	12422.272461	2135.537109	8.336689
620.331970	1251.944458	12451.650391	2146.836182	7.990314
620.669861	1310.700073	12187.250000	2151.355957	7.729068
621.007751	1242.905151	12356.737305	2036.104736	7.137049
621.345581	1233.865845	12304.761719	2022.545654	7.123903
621.683289	1281.322266	12266.344727	2117.458496	7.611602
622.020996	1204.488159	11979.345703	2060.962891	7.948827
622.358704	1206.747925	12164.652344	2045.144043	7.651062
622.696350	1260.983765	12040.361328	2011.246582	6.960168
623.033875	1294.881226	12114.935547	2038.364502	6.871345
623.371460	1202.228271	11927.370117	2058.702881	7.985672
623.708984	1263.243652	12081.038086	1986.388428	6.684771
624.046448	1220.306885	12133.014648	1968.309814	6.854421
624.383789	1184.149658	11965.787109	2011.246582	7.671348
624.721191	1240.645386	11999.684570	1984.128662	6.910313
625.058533	1152.512085	12153.352539	1963.790161	7.374691
625.395813	1150.252197	12133.014648	2015.766235	7.880659
625.733032	1254.204346	12297.981445	1975.089355	6.527522
626.070190	1229.346191	12401.933594	2033.844849	7.200647
626.407410	1403.352905	12505.885742	2187.513184	7.062895
626.744507	1324.259033	12598.539063	2115.198730	7.015434
627.081543	1247.424805	12851.639648	2097.120117	7.322299
627.418518	1175.110352	12964.630859	2128.757568	8.088940
627.755554	1195.448853	13021.126953	1993.167969	6.745652
628.092529	1285.841919	13068.583008	2137.796875	7.230533
628.429382	1195.448853	12928.473633	2153.615723	8.166409
628.766174	1378.494873	12772.545898	2198.812256	7.199523
629.103027	1290.361572	12679.892578	2164.914795	7.678571
629.439819	1229.346191	12413.233398	2027.065430	7.132755
629.776489	1346.857300	12277.643555	2022.545654	6.181517
630.113159	1199.968506	12160.132813	2040.624390	7.670103
630.449829	1321.999146	12180.470703	2047.403809	6.680541
630.786377	1209.007813	11687.828125	1988.648315	7.440156
631.122925	1396.573486	12022.283203	2024.805542	5.912377
631.459412	1333.298340	11552.238281	2049.663574	7.010172
631.795898	1202.228271	11543.199219	1952.491089	7.255246
632.132324	1249.684692	11385.011719	1959.270508	7.001114
632.468689	1315.219727	11339.815430	2002.207275	6.853020
632.804993	1211.267578	11125.130859	1914.073975	7.089128
633.141296	1215.787231	11186.146484	1929.892822	7.162285
633.477539	1265.503418	10890.109375	2036.104736	8.006576
633.813721	1247.424805	10944.344727	1832.720215	6.035890
634.149841	1245.165039	10957.904297	1936.672241	7.119590
634.485962	1274.542725	11113.832031	1943.451782	6.798347
634.822083	1283.582031	11104.792969	2051.923584	7.823287
635.158020	1306.180420	11149.989258	2060.962891	7.667586
635.494019	1220.306885	11048.296875	2020.285889	8.139803
635.829956	1281.322266	10754.519531	1952.491089	7.084924
636.165894	1143.472778	10840.392578	1918.593628	7.993475
636.501709	1190.929199	11091.234375	1963.790161	7.806436
636.837463	1134.433472	10562.434570	1916.333862	8.293385
637.173279	1211.267578	10286.735352	1972.829468	8.391434
637.509033	1251.944458	10386.167969	1855.318481	6.605641
637.844666	1152.512085	10212.161133	1792.043335	7.059117
638.180237	1229.346191	10162.444336	1898.255249	7.487986
638.515869	1213.527466	9959.060547	1798.822754	6.692505
638.851440	1197.708618	10031.375000	1889.215942	7.828090
639.186890	1270.023071	10013.295898	1830.460327	6.409925
639.522339	1224.826538	9599.748047	1825.940674	7.177549
639.857727	1220.306885	9724.038086	1825.940674	7.121977
640.193176	1326.518799	9760.195313	1866.617554	6.404072
640.528442	1240.645386	9608.787109	1823.680908	6.967324
640.863708	1175.110352	9608.787109	1812.381714	7.556270
641.198914	1184.149658	9310.490234	1773.964722	7.258065
641.534180	1229.346191	9432.520508	1731.027954	6.115703
641.869263	1229.346191	9276.592773	1742.327148	6.374615
642.204346	1179.630005	9168.121094	1692.610840	6.421498
642.539368	1224.826538	9192.978516	1760.405762	6.721498
642.874390	1199.968506	9165.860352	1753.626221	6.950355
643.209412	1195.448853	9192.978516	1780.744141	7.318451
643.544312	1276.802612	9077.727539	1685.831421	5.243338
643.879150	1297.140991	9278.852539	1629.335693	4.161948
644.213989	1288.101685	9018.971680	1737.807495	5.817014
644.548828	1319.739380	9109.365234	1683.571533	4.670727
644.883545	1213.527466	9059.648438	1728.768066	6.566819
645.218262	1233.865845	8876.602539	1690.351074	5.972798
645.552856	1238.385498	8817.847656	1715.209106	6.290996
645.887573	1251.944458	8971.515625	1726.508301	6.147542
646.222107	1263.243652	9005.413086	1622.556274	4.640981
646.556580	1138.953125	9147.782227	1699.390381	6.997743
646.891113	1190.929199	9028.011719	1633.855347	5.651671
647.225586	1260.983765	8960.216797	1579.619507	4.138539
647.559937	1222.566772	9147.782227	1636.115234	5.218135
647.894226	1163.811279	9009.932617	1645.154541	6.134793
648.228577	1310.700073	9138.743164	1755.886108	5.687067
648.562927	1184.149658	9023.491211	1769.445068	7.466129
648.897095	1236.125732	8964.736328	1690.351074	5.877193
649.231262	1211.267578	8994.114258	1599.958008	4.994194
649.565430	1222.566772	8917.279297	1710.689453	6.343612
649.899475	1184.149658	8863.043945	1615.776733	5.620953
650.233521	1247.424805	9102.585938	1753.626221	6.444189
650.567505	1188.669312	8905.980469	1543.462280	4.597365
650.901428	1229.346191	8933.098633	1683.571533	5.896157
651.235413	1215.787231	8985.074219	1547.981934	4.275743
651.569275	1177.370239	8978.294922	1688.091187	6.546928
651.903015	1342.337646	9168.121094	1694.870728	4.504764
652.236816	1220.306885	8966.996094	1642.894653	5.455076
652.570618	1267.763306	8822.367188	1550.241699	3.739156
652.904297	1310.700073	9043.830078	1651.933960	4.412623
653.237915	1213.527466	8770.390625	1550.241699	4.455741
653.571533	1209.007813	8702.595703	1595.438354	5.156816
653.905090	1247.424805	8637.061523	1685.831421	5.932722
654.238586	1229.346191	8580.565430	1636.115234	5.533355
654.572021	1188.669312	8499.211914	1597.698120	5.595054
654.905457	1240.645386	8530.849609	1640.634888	5.486671
655.238892	1247.424805	8449.495117	1577.359619	4.581110
655.572144	1303.920532	8424.637695	1595.438354	4.093939
655.905457	1170.590698	8203.173828	1545.722046	5.334190
656.238708	1231.606079	8311.645508	1568.320313	4.755824
656.571960	1220.306885	8478.873047	1615.776733	5.448319
656.905090	1111.835205	8424.637695	1527.643433	5.686031
657.238159	1193.188965	8435.936523	1597.698120	5.585023
657.571289	1326.518799	8691.296875	1721.988647	5.369745
657.904358	1195.448853	8487.912109	1538.942627	4.710257
658.237305	1213.527466	8557.966797	1545.722046	4.523076
658.570190	1181.889893	8679.998047	1597.698120	5.545508
658.903076	1141.212891	8813.328125	1575.099854	5.655376
659.236023	1256.464111	9244.955078	1613.516968	4.469591
659.568787	1193.188965	9253.994141	1599.958008	5.046258
659.901428	1321.999146	9335.347656	1638.375000	3.948110
660.234192	1209.007813	9394.103516	1636.115234	5.218112
660.566895	1227.086426	9428.000977	1577.359619	4.271148
660.899536	1328.778687	9362.465820	1584.139160	3.178621
661.232056	1249.684692	9382.804688	1566.060547	3.889969
661.564636	1229.346191	9138.743164	1604.477661	4.742858
661.897156	1195.448853	8994.114258	1622.556274	5.476673
662.229553	1288.101685	8835.925781	1604.477661	4.191618
662.561951	1297.140991	8750.052734	1593.178467	3.972105
662.894287	1353.636719	8815.587891	1633.855347	3.755300
663.226685	1186.409546	8336.503906	1536.682739	4.898861
663.558899	1283.582031	8280.008789	1633.855347	5.006460
663.891052	1263.243652	7952.333496	1482.446899	3.277026
664.223328	1231.606079	8313.906250	1588.658813	5.041480
664.555420	1233.865845	7898.097656	1588.658813	5.323839
664.887512	1209.007813	7798.665039	1444.029785	3.566528
665.219543	1254.204346	7943.293945	1532.163086	4.155405
665.551575	1270.023071	7839.341797	1624.816040	5.400757
665.883545	1190.929199	7796.405273	1496.005859	4.618542
666.215454	1204.488159	7504.887695	1505.045166	4.770444
666.547302	1136.693237	7441.612305	1477.927246	5.412187
666.879150	1249.684692	7787.365723	1606.737427	5.461458
667.210938	1267.763306	7721.831055	1475.667480	3.221289
667.542664	1247.424805	7735.390137	1462.108521	3.308953
667.874268	1281.322266	7565.902832	1543.462280	4.171162
668.205994	1265.503418	7647.256836	1541.202393	4.320113
668.537537	1265.503418	7748.948730	1595.438354	5.088883
668.869080	1263.243652	7647.256836	1554.761353	4.566370
669.200562	1247.424805	7554.603516	1505.045166	4.084558
669.532043	1211.267578	7586.241211	1523.123779	4.891882
669.863525	1238.385498	7536.524902	1543.462280	4.843919
670.194824	1202.228271	7586.241211	1493.746094	4.566373
670.526184	1213.527466	7746.688965	1552.501587	5.188516
670.857483	1209.007813	7532.005371	1475.667480	4.217299
671.188660	1270.023071	7674.374512	1500.525513	3.599154
671.519897	1270.023071	7419.014160	1425.951172	2.535832
671.851013	1281.322266	7441.612305	1486.966553	3.338224
672.182129	1256.464111	7394.155762	1486.966553	3.755523
672.513184	1175.110352	7217.889160	1434.990479	4.300673
672.844238	1367.195679	7552.343750	1554.761353	3.032517
673.175171	1218.047119	7491.328613	1536.682739	5.079250
673.506104	1290.361572	7495.848145	1563.800659	4.406409
673.836975	1333.298340	7319.581543	1480.187134	2.453756
674.167786	1147.992432	7177.212402	1462.108521	5.209896
674.498596	1199.968506	7208.850098	1554.761353	5.904474
674.829407	1163.811279	7211.109863	1439.510132	4.559042
675.160034	1247.424805	7215.629395	1459.848633	3.559258
675.490723	1215.787231	7134.275879	1502.785400	4.849180
675.821289	1125.394165	6994.166504	1455.328979	5.621871
676.151917	1274.542725	6926.371582	1486.966553	3.758497
676.482422	1288.101685	6858.576660	1536.682739	4.462475
676.812927	1157.031738	7041.623047	1484.706787	5.568357
677.143311	1301.660645	7098.118652	1505.045166	3.508772
677.473694	1231.606079	7132.016113	1557.021240	5.515128
677.804016	1116.354858	6899.253906	1473.407593	6.174286
678.134338	1190.929199	6985.126953	1536.682739	5.967237
678.464539	1288.101685	6881.175293	1584.139160	5.292930
678.794800	1249.684692	7071.000488	1536.682739	4.930123
679.124878	1267.763306	7193.031250	1559.281006	4.919908
679.455078	1166.071045	7186.251953	1532.163086	6.081080
679.785095	1242.905151	7292.463867	1593.178467	5.790064
680.115173	1206.747925	7188.511719	1545.722046	5.666792
680.445129	1224.826538	7387.376465	1577.359619	5.720572
680.775024	1292.621338	7473.250000	1581.879272	4.680073
681.104919	1256.464111	7532.005371	1527.643433	4.321210
681.434814	1195.448853	7409.974609	1566.060547	5.963636
681.764526	1206.747925	7624.658203	1606.737427	6.232395
682.094360	1181.889893	7721.831055	1538.942627	5.459571
682.424011	1369.455566	7611.099609	1613.516968	3.910210
682.753723	1251.944458	7518.446289	1588.658813	5.373243
683.083313	1229.346191	7448.391602	1532.163086	4.869186
683.412903	1179.630005	7486.809082	1543.462280	5.768542
683.742432	1186.409546	7256.306641	1505.045166	5.249440
684.071899	1358.156372	7398.675781	1480.187134	2.020203
684.401306	1188.669312	7245.007324	1581.879272	6.492537
684.730713	1213.527466	7003.205566	1557.021240	5.932865
685.060059	1177.370239	7143.314941	1545.722046	6.174241
685.389404	1190.929199	6811.120605	1525.383667	5.950944
685.718628	1260.983765	6817.899902	1577.359619	5.693371
686.047852	1229.346191	6881.175293	1498.265747	4.758098
686.376953	1238.385498	6973.828125	1602.217773	6.343578
686.706116	1249.684692	6619.035156	1532.163086	5.260942
687.035156	1270.023071	6808.860840	1477.927246	3.753570
687.364197	1303.920532	6948.969727	1593.178467	5.124099
687.693176	1249.684692	6750.104980	1491.486206	4.396055
688.022156	1272.282959	6777.223145	1502.785400	4.187192
688.351013	1190.929199	6824.679199	1545.722046	6.297632
688.679871	1220.306885	6686.830078	1586.398926	6.696981
689.008606	1157.031738	6722.987305	1599.958008	7.957776
689.337402	1242.905151	6612.255371	1434.990479	3.577441
689.666138	1202.228271	6716.207520	1559.281006	6.475409
689.994751	1188.669312	6551.240234	1489.226440	5.604721
690.323364	1229.346191	6551.240234	1568.320313	6.369426
690.651917	1213.527466	6257.462891	1507.305054	5.824372
690.980469	1310.700073	6354.635254	1665.492920	7.034049
691.308960	1290.361572	6433.729004	1620.296387	6.414763
691.637451	1242.905151	6128.652344	1608.997314	7.493064
691.965759	1290.361572	6101.534668	1642.894653	7.327384
692.294128	1195.448853	6198.707031	1599.958008	8.084914
692.622437	1224.826538	6103.794434	1545.722046	6.577119
692.950684	1326.518799	6047.298828	1764.925415	9.286740
693.278870	1324.259033	6056.337891	1631.595581	6.494747
693.607117	1222.566772	5907.189453	1629.335693	8.683067
693.935120	1236.125732	5791.937988	1599.958008	7.986112
694.263245	1254.204346	5803.237305	1665.492920	9.041230
694.591248	1283.582031	5828.095215	1796.562988	11.287919
694.919250	1256.464111	5776.119141	1694.870728	9.700001
695.247192	1209.007813	5857.473145	1737.807495	11.375791
695.575073	1319.739380	5814.536621	1737.807495	9.301156
695.902893	1240.645386	5715.104004	1712.949341	10.555555
696.230774	1231.606079	5771.599609	1724.248413	10.851168
696.558411	1254.204346	5821.315918	1773.964722	11.380506
696.886169	1209.007813	5742.222168	1807.862061	13.210367
697.213806	1175.110352	5816.796387	1749.106567	12.366115
697.541443	1265.503418	6008.881836	1866.617554	12.672700
697.869019	1123.134277	5929.787598	1755.886108	13.164083
698.196533	1224.826538	6363.674805	1862.097900	12.401054
698.524048	1247.424805	6499.264160	1895.995361	12.349399
698.851501	1331.038452	6521.862305	1963.790161	12.189813
699.178772	1249.684692	6761.404297	1929.892822	12.341124
699.506226	1251.944458	6869.875977	1970.569702	12.791634
699.833435	1337.817993	6890.214355	2115.198730	14.000814
700.160767	1213.527466	6964.788574	2081.301270	15.088408
700.487915	1152.512085	6924.111816	2079.041504	16.053251
700.815063	1190.929199	6605.476074	2076.781494	16.360600
701.142151	1147.992432	6569.318848	2088.080811	17.340561
701.469238	1209.007813	6478.925781	2140.056641	17.667236
701.796265	1242.905151	6417.910645	1941.191895	13.493449
702.123230	1315.219727	6212.266113	2112.938721	16.289799
702.450134	1233.865845	5965.944824	2074.521729	17.765043
702.777039	1310.700073	5889.110840	2137.796875	18.065151
703.103882	1251.944458	5755.780762	2092.600342	18.665329
703.430664	1272.282959	5678.946777	2097.120117	18.717949
703.757385	1215.787231	5561.435547	2074.521729	19.760790
704.084106	1204.488159	5272.177734	2051.923584	20.833336
704.410767	1125.394165	5195.343750	2038.364502	22.431980
704.737366	1152.512085	5100.431152	1952.491089	20.263309
705.063904	1385.274292	5513.979492	2128.757568	18.007662
705.390442	1256.464111	5089.131836	2022.545654	19.988207
705.716919	1199.968506	5233.760742	2031.585083	20.616247
706.043396	1247.424805	5226.981445	2018.026001	19.363997
706.369690	1249.684692	5193.083984	1990.908081	18.796558
706.696106	1308.440186	5163.706055	2124.238037	21.160612
707.022278	1292.621338	5095.911133	2088.080811	20.915037
707.348633	1215.787231	5041.675293	2110.678955	23.390430
707.674805	1251.944458	5055.234375	2153.615723	23.707664
708.000916	1184.149658	5143.367676	2187.513184	25.342466
708.327026	1249.684692	5016.817383	2083.561035	22.135571
708.653076	1224.826538	5145.627441	2155.875488	23.746397
708.979065	1229.346191	5136.588379	2182.993408	24.407169
709.305054	1224.826538	5068.793457	2198.812256	25.338037
709.630920	1247.424805	5202.123047	2228.189941	24.799999
709.956787	1132.173584	5123.029297	2259.827637	28.255947
710.282593	1199.968506	5371.610352	2282.425781	25.947992
710.608459	1170.590698	5265.398438	2232.709717	25.938190
710.934082	1193.188965	5380.649414	2318.583252	26.875341
711.259827	1233.865845	5254.099121	2329.882324	27.262508
711.585449	1143.472778	5382.909180	2309.543701	27.505327
711.911072	1202.228271	5534.317871	2359.260010	26.708397
712.236572	1179.630005	5367.090820	2406.716309	29.303827
712.562073	1181.889893	5459.743652	2341.181396	27.099840
712.887512	1215.787231	5387.429199	2300.504395	26.002163
713.213013	1224.826538	5428.105957	2325.362549	26.182795
713.538330	1218.047119	5369.350586	2381.858398	28.034838
713.863647	1179.630005	5217.941895	2352.480469	29.043087
714.188904	1202.228271	5204.382813	2338.921631	28.402035
714.514099	1211.267578	5240.540039	2427.054932	30.173868
714.839294	1249.684692	5231.500977	2404.456543	29.001133
715.164490	1301.660645	5238.280273	2408.976318	28.128592
715.489502	1303.920532	5066.533691	2463.212158	30.810810
715.814575	1242.905151	5233.760742	2320.843018	27.010195
716.139526	1308.440186	5403.248047	2411.236084	26.931566
716.464539	1233.865845	5127.548828	2368.299316	29.135229
716.789368	1188.669312	4982.919922	2318.583252	29.779634
717.114258	1292.621338	5068.793457	2499.369385	31.956913
717.439026	1202.228271	5034.895996	2418.015625	31.721701
717.763794	1168.330933	4962.581543	2359.260010	31.387730
718.088440	1150.252197	4924.164551	2458.692383	34.670658
718.413208	1209.007813	4860.889160	2354.740479	31.373764
718.737793	1256.464111	4928.684082	2384.118164	30.707693
719.062378	1290.361572	4878.967773	2445.133545	32.178844
719.386841	1209.007813	4718.520020	2336.661865	32.131363
719.711304	1188.669312	4646.205566	2298.244629	32.091503
720.035767	1204.488159	4621.347656	2318.583252	32.605824
720.360168	1249.684692	4533.214355	2415.755615	35.512726
720.684570	1195.448853	4571.631348	2370.559082	34.805885
721.008789	1321.999146	4571.631348	2427.054932	34.005562
721.333069	1335.558105	4417.962891	2291.465088	31.011728
721.657227	1195.448853	4393.104980	2305.024170	34.699642
721.981445	1270.023071	4304.971680	2343.441162	35.368572
722.305481	1251.944458	4377.286133	2402.196777	36.804050
722.629578	1227.086426	4280.113281	2277.906250	34.418953
722.953552	1242.905151	4375.026367	2311.803711	34.126987
723.277588	1306.180420	4284.633301	2257.567871	31.942337
723.601440	1204.488159	4316.270508	2266.607178	34.132175
723.925354	1294.881226	4266.554688	2341.181396	35.209126
724.249146	1283.582031	4356.947754	2456.432617	38.161766
724.572937	1312.959839	4239.436523	2372.819092	36.216221
724.896667	1238.385498	4232.657227	2343.441162	36.905659
725.220398	1247.424805	4232.657227	2399.937012	38.607117
725.543945	1256.464111	4262.034668	2259.827637	33.383461
725.867615	1227.086426	4164.862305	2363.779785	38.692310
726.191101	1233.865845	4234.916992	2359.260010	37.499996
726.514648	1319.739380	4212.318848	2440.613770	38.749992
726.838074	1224.826538	4323.050293	2447.393311	39.460251
727.161499	1240.645386	4295.932129	2368.299316	36.908287
727.484863	1245.165039	4395.364746	2485.810303	39.383068
727.808228	1267.763306	4429.262207	2524.227539	39.742672
728.131470	1163.811279	4370.506836	2481.290771	41.085270
728.454712	1245.165039	4384.065430	2485.810303	39.524837
728.777832	1258.723999	4361.467285	2490.330078	39.694103
729.101013	1190.929199	4406.664063	2465.471924	39.634571
729.424011	1270.023071	4515.135742	2560.384766	39.763229
729.747070	1258.723999	4549.033203	2634.958984	41.826920
730.070068	1240.645386	4485.757813	2571.683838	41.016716
730.393005	1263.243652	4512.875977	2580.723145	40.542416
730.715881	1179.630005	4356.947754	2560.384766	43.456615
731.038757	1222.566772	4363.727051	2449.653076	39.064747
731.361572	1159.291626	4402.144043	2544.565918	42.717770
731.684326	1199.968506	4440.561035	2582.982910	42.677826
732.007019	1254.204346	4553.552734	2675.635986	43.082191
732.329712	1333.298340	4440.561035	2501.629150	37.600002
732.652283	1231.606079	4573.891113	2542.306152	39.215687
732.974854	1254.204346	4524.174805	2619.140137	41.741531
733.297363	1218.047119	4560.332031	2596.541992	41.244087
733.619873	1193.188965	4639.426270	2738.911133	44.852459
733.942261	1249.684692	4469.938965	2567.164063	40.912277
734.264648	1249.684692	4503.836426	2542.306152	39.722221
734.586975	1211.267578	4271.074219	2546.825684	43.648449
734.909302	1227.086426	4304.971680	2580.723145	43.979439
735.231506	1211.267578	4327.569824	2573.943604	43.727337
735.553711	1186.409546	4234.916992	2531.006836	44.106743
735.875854	1270.023071	4433.781738	2472.251465	38.000000
736.197937	1157.031738	4119.665527	2488.070313	44.927544
736.519958	1152.512085	4108.366699	2512.928223	46.024464
736.841980	1179.630005	4103.847168	2436.094238	42.967541
737.163940	1229.346191	4092.547852	2408.976318	41.199688
737.485840	1206.747925	4072.209473	2524.227539	45.977921
737.807678	1218.047119	4051.870850	2483.550537	44.657097
738.129517	1172.850586	3936.619629	2415.755615	44.971378
738.451233	1288.101685	4072.209473	2479.031006	42.775974
738.773010	1213.527466	4176.161621	2544.565918	44.927532
739.094666	1249.684692	4142.264160	2415.755615	40.312492
739.416260	1301.660645	4112.886230	2553.605225	44.533764
739.737854	1256.464111	4219.098145	2476.770996	41.189930
740.059448	1229.346191	4085.768311	2594.281982	47.784805
740.380859	1175.110352	4042.831543	2524.227539	47.044922
740.702332	1166.071045	4063.170166	2521.967529	46.801868
741.023682	1245.165039	4146.783691	2499.369385	43.224300
741.345032	1249.684692	4047.351318	2483.550537	44.103394
741.666321	1260.983765	4047.351318	2515.188232	45.012165
741.987549	1206.747925	4065.429932	2438.354004	43.083000
742.308777	1175.110352	3929.840332	2474.511230	47.169807
742.629944	1229.346191	3918.541016	2411.236084	43.949581
742.950989	1349.117065	3850.746338	2336.661865	39.476063
743.272095	1265.503418	3728.715576	2388.637695	45.596329
743.593140	1292.621338	3735.495117	2463.212158	47.918594
743.914063	1179.630005	3710.636963	2323.102783	45.178574
744.234985	1179.630005	3685.778809	2293.725098	44.454464
744.555847	1209.007813	3631.542969	2329.882324	46.268658
744.876648	1247.424805	3536.630127	2447.393311	52.418560
745.197449	1193.188965	3545.669434	2332.142090	48.414986
745.518188	1263.243652	3620.243896	2336.661865	45.541710
745.838867	1163.811279	3667.700195	2320.843018	46.209389
746.159485	1274.542725	3642.842041	2354.740479	45.610695
746.480042	1231.606079	3471.095215	2262.087402	46.014122
746.800537	1224.826538	3534.370361	2201.072021	42.270054
747.121094	1242.905151	3570.527588	2255.307861	43.495140
747.441528	1163.811279	3498.213135	2271.126709	47.434654
747.761902	1188.669312	3477.874756	2234.969482	45.705818
748.082275	1204.488159	3545.669434	2266.607178	45.366802
748.402588	1324.259033	3602.165283	2345.701172	44.841270
748.722839	1288.101685	3514.031982	2275.646484	44.365490
749.043030	1231.606079	3416.859375	2212.371338	44.881077
749.363159	1204.488159	3382.961914	2259.827637	48.443985
749.683289	1231.606079	3491.433594	2332.142090	48.699997
750.003357	1163.811279	3563.748047	2248.528564	45.197742
750.323303	1209.007813	3385.221680	2273.386475	48.909653
750.643311	1265.503418	3647.361816	2307.283936	43.738136
750.963257	1396.573486	3749.053955	2474.511230	45.821327
751.283142	1292.621338	3545.669434	2323.102783	45.737213
751.602905	1270.023071	3439.457520	2244.008789	44.895832
751.922729	1288.101685	3593.125977	2379.598389	47.352936
752.242432	1283.582031	3486.914063	2228.189941	42.871792
752.562134	1272.282959	3362.623535	2189.772949	43.891891
752.881714	1267.763306	3387.481689	2239.489258	45.842220
753.201355	1270.023071	3428.158447	2151.355957	40.837704
753.520874	1204.488159	3272.230469	2239.489258	50.054649
753.840393	1267.763306	3351.324463	2167.174561	43.167023
754.159851	1272.282959	3385.221680	2237.229248	45.668446
754.479248	1242.905151	3360.363770	2164.914795	43.543221
754.798523	1321.999146	3403.300293	2232.709717	43.756786
755.117859	1310.700073	3450.756836	2155.875488	39.493134
755.437134	1267.763306	3301.608154	2248.528564	48.222225
755.756348	1319.739380	3385.221680	2318.583252	48.358868
756.075500	1292.621338	3324.206299	2230.449951	46.162411
756.394653	1290.361572	3281.269775	2146.836182	43.019291
756.713623	1236.125732	3371.662842	2210.111328	45.608459
757.032654	1283.582031	3344.544922	2112.938721	40.241222
757.351624	1263.243652	3324.206299	2056.443115	38.486843
757.670532	1218.047119	3303.867920	2176.214111	45.937168
757.989441	1175.110352	3247.372314	2115.198730	45.365326
758.308289	1193.188965	3373.922607	2223.670410	47.253887
758.627014	1220.306885	3335.505615	2162.655029	44.551281
758.945801	1245.165039	3333.245850	2133.277344	42.532467
759.264404	1256.464111	3337.765381	2131.017334	42.019539
759.583130	1337.817993	3367.143066	2239.489258	44.432076
759.901611	1303.920532	3364.883301	2277.906250	47.258770
760.220215	1274.542725	3484.654297	2273.386475	45.194267
760.538635	1303.920532	3312.907227	2207.851563	44.994377
760.857117	1197.708618	3240.592773	2210.111328	49.557518
761.175537	1342.337646	3471.095215	2250.788330	42.675159
761.493896	1242.905151	3378.442383	2194.292725	44.550270
761.812134	1263.243652	3362.623535	2205.591797	44.886974
762.130432	1337.817993	3446.237061	2244.008789	42.979637
762.448608	1213.527466	3392.001221	2264.347168	48.236511
762.766785	1360.416260	3459.796143	2291.465088	44.348755
763.084900	1378.494873	3588.606201	2361.519775	44.478523
763.402954	1213.527466	3579.566895	2286.945557	45.367714
763.720947	1222.566772	3694.818115	2350.220703	45.612427
764.038940	1147.992432	4069.949463	2447.393311	44.470226
764.356750	1288.101685	4207.798828	2506.148926	41.718273
764.674683	1195.448853	4140.004395	2659.817139	49.731384
764.992493	1175.110352	4271.074219	2655.297363	47.810215
765.310303	1227.086426	4386.325195	2657.557373	45.278976
765.627930	1168.330933	4225.877441	2614.620605	47.302296
765.945679	1267.763306	4271.074219	2650.777832	46.049660
766.263306	1240.645386	4045.091309	2531.006836	46.011280
766.580872	1193.188965	4015.713623	2458.692383	44.835869
766.898376	1202.228271	3773.912109	2440.613770	48.154655
767.215881	1236.125732	3636.062744	2268.866943	43.032013
767.533325	1199.968506	3532.110596	2244.008789	44.767437
767.850708	1168.330933	3414.599609	2207.851563	46.277664
768.168030	1197.708618	3396.520996	2341.181396	52.004105
768.485352	1199.968506	3272.230469	2182.993408	47.437290
768.802551	1227.086426	3285.789307	2221.410645	48.298576
769.119751	1242.905151	3177.317627	2146.836182	46.728970
769.436890	1290.361572	3120.822021	2176.214111	48.395065
769.753967	1260.983765	3267.710693	2070.002197	40.315323
770.071045	1211.267578	3143.420166	2045.144043	43.157898
770.388062	1281.322266	3100.483398	2151.355957	47.826092
770.704956	1220.306885	3073.365479	2067.742188	45.731705
771.021912	1306.180420	3043.987793	1997.687622	39.791935
771.338684	1218.047119	2964.893799	1990.908081	44.243206
771.655579	1159.291626	2953.594727	2022.545654	48.110825
771.972351	1294.881226	3039.468262	2020.285889	41.580307
772.289063	1238.385498	2942.295654	1997.687622	44.562332
772.605713	1206.747925	2942.295654	1999.947388	45.703121
772.922302	1172.850586	2908.398193	2022.545654	48.958328
773.238831	1267.763306	2906.138428	1947.971436	41.517239
773.555420	1308.440186	3039.468262	2164.914795	49.477798
773.871826	1202.228271	2933.256348	1981.868774	45.039162
774.188293	1263.243652	2928.736572	2004.467041	44.504745
774.504639	1245.165039	2935.516113	2065.482422	48.529408
774.820984	1233.865845	2879.020264	1961.530396	44.230774
775.137207	1211.267578	2946.815186	1988.648315	44.791668
775.453552	1152.512085	2876.760498	1900.515015	43.381390
775.769592	1299.400879	2827.044434	1905.034668	39.644966
776.085815	1224.826538	2822.524658	1932.152588	44.271572
776.401855	1136.693237	2874.500732	1986.388428	48.894669
776.717896	1249.684692	2829.304199	2004.467041	47.782543
777.033875	1281.322266	2804.446045	2054.183350	50.741844
777.349854	1215.787231	2797.666504	1975.089355	48.000004
777.665710	1211.267578	2836.083740	1941.191895	44.923500
777.981567	1321.999146	2851.902344	2008.986694	44.903988
778.297363	1236.125732	2684.675293	1905.034668	46.177841
778.613098	1166.071045	2747.950439	1853.058594	43.428566
778.928772	1240.645386	2747.950439	1837.239868	39.580208
779.244385	1242.905151	2799.926514	1929.892822	44.121918
779.559998	1281.322266	2705.013672	1889.215942	42.698418
779.875488	1188.669312	2759.249512	1916.333862	46.330940
780.191040	1290.361572	2822.524658	1902.774902	39.970505
780.506470	1177.370239	2743.430664	1902.774902	46.320351
780.821899	1206.747925	2786.367432	1993.167969	49.785408
781.137207	1213.527466	2723.092285	1943.451782	48.353294
781.452576	1213.527466	2725.352051	1873.397095	43.647236
781.767822	1272.282959	2775.068359	1902.774902	41.954887
782.083069	1240.645386	2759.249512	1920.853516	44.791668
782.398193	1184.149658	2641.738525	1889.215942	48.372097
782.713379	1301.660645	2705.013672	1902.774902	42.834145
783.028381	1283.582031	2745.690430	1929.892822	44.204025
783.343384	1213.527466	2585.242676	1828.200562	44.810547
783.658386	1283.582031	2693.714600	1907.294556	44.230774
783.973328	1267.763306	2655.297363	1796.562988	38.110752
784.288086	1430.470825	2763.769287	1932.152588	37.627117
784.602966	1283.582031	2540.046143	1873.397095	46.942451
784.917725	1324.259033	2616.880371	1938.932129	47.552448
785.232483	1272.282959	2619.140137	1794.303101	38.758389
785.547119	1263.243652	2596.541992	1832.720215	42.711864
785.861755	1233.865845	2488.070313	1825.940674	47.207203
786.176270	1190.929199	2535.526611	1882.436401	51.428570
786.490845	1195.448853	2533.266846	1816.901367	46.452694
786.805298	1193.188965	2558.124756	1825.940674	46.357616
787.119751	1265.503418	2567.164063	1819.161255	42.534729
787.434143	1218.047119	2517.447998	1821.421021	46.434776
787.748474	1209.007813	2564.904297	1787.523682	42.666668
788.062744	1245.165039	2598.801758	1823.680908	42.737896
788.377014	1265.503418	2614.620605	1789.783447	38.860970
788.691162	1193.188965	2628.179443	1882.436401	48.031498
789.005310	1166.071045	2585.242676	1859.838135	48.885357
789.319397	1229.346191	2646.258057	1914.073975	48.325363
789.633423	1152.512085	2693.714600	1923.113281	49.999996
789.947449	1224.826538	2720.832520	1880.176514	43.806641
790.261414	1227.086426	2639.478760	1947.971436	51.039997
790.575256	1213.527466	2546.825684	1755.886108	40.677971
790.889160	1190.929199	2637.218750	1884.696289	47.968754
791.202881	1211.267578	2569.424072	1855.318481	47.420963
791.516663	1175.110352	2542.306152	1866.617554	50.578506
791.830322	1256.464111	2528.747070	1805.602295	43.161640
792.144043	1224.826538	2492.589844	1803.342407	45.632797
792.457581	1260.983765	2576.203369	1760.405762	37.972519
792.771118	1245.165039	2429.314697	1796.562988	46.564888
793.084656	1324.259033	2549.085449	1846.279175	42.619930
793.398071	1251.944458	2544.565918	1798.822754	42.307690
793.711487	1184.149658	2257.567871	1676.792114	45.894737
794.024841	1213.527466	2372.819092	1706.169800	42.495117
794.338135	1254.204346	2454.172852	1785.263794	44.256115
794.651428	1256.464111	2375.078857	1712.949341	40.808083
794.964600	1285.841919	2492.589844	1773.964722	40.449444
795.277771	1224.826538	2418.015625	1712.949341	40.909092
795.590881	1315.219727	2300.504395	1726.508301	41.743122
795.903931	1428.211060	2531.006836	1825.940674	36.065575
796.216980	1193.188965	2442.873535	1688.091187	39.602173
796.529907	1326.518799	2528.747070	1868.877441	45.112785
796.842834	1175.110352	2465.471924	1794.303101	47.985989
797.155701	1260.983765	2413.495850	1767.185181	43.921570
797.468506	1231.606079	2524.227539	1792.043335	43.356644
797.781250	1321.999146	2519.707764	1846.279175	43.773586
798.093994	1181.889893	2472.251465	1814.641602	49.036777
798.406677	1154.771851	2404.456543	1731.027954	46.112122
798.719238	1202.228271	2454.172852	1728.768066	42.057755
799.031921	1222.566772	2413.495850	1708.429688	40.796967
799.344360	1209.007813	2492.589844	1848.538940	49.823940
799.656860	1236.125732	2393.157471	1764.925415	45.703125
799.969299	1204.488159	2454.172852	1789.783447	46.835438
800.281677	1184.149658	2433.834229	1726.508301	43.399643
800.593933	1209.007813	2370.559082	1604.477661	34.046700
800.906250	1150.252197	2275.646484	1663.233154	45.582333
801.218445	1168.330933	2248.528564	1726.508301	51.673634
801.530640	1195.448853	2314.063477	1735.547607	48.282825
801.842712	1222.566772	2320.843018	1706.169800	44.032913
802.154846	1209.007813	2325.362549	1670.012573	41.295544
802.466797	1220.306885	2219.150635	1724.248413	50.452488
802.778870	1297.140991	2302.764404	1667.752808	36.853935
803.090759	1294.881226	2257.567871	1690.351074	41.079811
803.402649	1247.424805	2155.875488	1620.296387	41.044781
803.714478	1231.606079	2239.489258	1651.933960	41.704029
804.026245	1224.826538	2239.489258	1627.075928	39.643654
804.337952	1179.630005	2189.772949	1672.272461	48.769577
804.649658	1193.188965	2255.307861	1699.390381	47.659580
804.961243	1197.708618	2237.229248	1699.390381	48.260876
805.272888	1276.802612	2225.930176	1629.335693	37.142857
805.584412	1242.905151	2280.166016	1581.879272	32.679737
805.895874	1181.889893	2282.425781	1633.855347	41.067760
806.207336	1231.606079	2153.615723	1599.958008	39.950985
806.518677	1197.708618	2198.812256	1633.855347	43.566589
806.830017	1186.409546	2244.008789	1649.674194	43.803421
807.141357	1206.747925	2289.205322	1631.595581	39.248440
807.452576	1238.385498	2289.205322	1638.375000	38.064518
807.763733	1285.841919	2388.637695	1708.429688	38.319675
808.074890	1105.055664	2162.655029	1633.855347	50.000000
808.385925	1337.817993	2352.480469	1740.067261	39.643654
808.697021	1247.424805	2253.048096	1694.870728	44.494389
809.007935	1333.298340	2332.142090	1760.405762	42.760185
809.318909	1349.117065	2347.960938	1717.468994	36.877827
809.629822	1260.983765	2133.277344	1708.429688	51.295338
809.940674	1168.330933	2162.655029	1636.115234	47.045456
810.251404	1197.708618	2146.836182	1679.051880	50.714287
810.562195	1346.857300	2201.072021	1651.933960	35.714283
810.872864	1222.566772	2155.875488	1620.296387	42.615013
811.183533	1152.512085	2099.379883	1622.556274	49.642010
811.494080	1274.542725	2115.198730	1541.202393	31.720427
811.804626	1218.047119	2085.820801	1570.580200	40.625004
812.115112	1136.693237	2110.678955	1532.163086	40.603249
812.425598	1229.346191	2045.144043	1543.462280	38.504158
812.735962	1220.306885	2004.467041	1534.422974	40.057644
813.046326	1258.723999	2038.364502	1577.359619	40.869556
813.356628	1396.573486	2099.379883	1674.532227	39.549831
813.666870	1297.140991	2101.639648	1656.453613	44.662922
813.976990	1260.983765	2101.639648	1568.320313	36.559139
814.287170	1227.086426	2119.718262	1631.595581	45.316460
814.597290	1285.841919	2081.301270	1593.178467	38.636360
814.907349	1256.464111	2018.026001	1534.422974	36.498528
815.217346	1428.211060	2140.056641	1683.571533	35.873016
815.527283	1276.802612	2063.222656	1557.021240	35.632183
815.837158	1245.165039	2051.923584	1590.918701	42.857143
816.147034	1321.999146	2176.214111	1584.139160	30.687828
816.456787	1206.747925	2090.340576	1595.438354	43.989777
816.766541	1321.999146	2112.938721	1636.115234	39.714298
817.076233	1195.448853	2187.513184	1640.634888	44.874714
817.385925	1251.944458	2133.277344	1667.752808	47.179489
817.695496	1457.588867	2289.205322	1740.067261	33.967388
818.005066	1251.944458	2135.537109	1590.918701	38.363182
818.314514	1229.346191	2176.214111	1595.438354	38.663486
818.623962	1236.125732	2158.135254	1518.604126	30.637253
818.933350	1276.802612	1997.687622	1550.241699	37.931026
819.242737	1306.180420	2210.111328	1649.674194	38.000004
819.552002	1202.228271	2076.781494	1618.036621	47.545231
819.861328	1218.047119	2146.836182	1599.958008	41.119228
820.170471	1166.071045	2203.332031	1608.997314	42.701527
820.479675	1224.826538	2225.930176	1597.698120	37.246052
820.788696	1188.669312	2329.882324	1712.949341	45.940594
821.097839	1245.165039	2411.236084	1767.185181	44.767437
821.406738	1276.802612	2589.762451	1911.814209	48.364891
821.715698	1258.723999	2589.762451	1830.460327	42.954155
822.024597	1294.881226	2808.965820	1975.089355	44.925373
822.333435	1288.101685	3484.654297	2264.347168	44.444435
822.642273	1251.944458	4180.681152	2718.572510	50.077156
822.950989	1236.125732	5267.658203	3095.963867	46.132286
823.259705	1256.464111	5902.669922	3410.079834	46.352135
823.568359	1285.841919	6650.672852	3597.645508	43.091827
823.876953	1358.156372	7159.133789	3995.375244	45.461628
824.185486	1233.865845	7190.771484	3918.541016	45.068287
824.494019	1209.007813	7016.764648	3816.848877	44.902725
824.802429	1147.992432	6336.556641	3640.582275	48.040066
825.110840	1195.448853	5590.813477	3215.734619	45.964008
825.419189	1240.645386	5215.682129	2955.854492	43.149517
825.727478	1270.023071	4732.079102	2908.398193	47.323761
826.035767	1238.385498	4402.144043	2815.745117	49.857143
826.343933	1238.385498	4250.735840	2759.249512	50.487621
826.652100	1220.306885	3979.556396	2592.022217	49.713348
826.960144	1213.527466	3776.171875	2381.858398	45.590832
827.268250	1202.228271	3724.195801	2271.126709	42.383514
827.576233	1367.195679	3920.801025	2546.825684	46.194687
827.884155	1227.086426	3893.682861	2449.653076	45.847458
828.192017	1263.243652	3880.124023	2515.188232	47.841110
828.499878	1218.047119	3938.879639	2445.133545	45.099667
828.807678	1161.551392	3871.084717	2485.810303	48.874062
829.115479	1152.512085	3925.320557	2413.495850	45.476768
829.423096	1258.723999	3697.077881	2282.425781	41.983311
829.730835	1209.007813	3407.820068	2237.229248	46.762585
830.038330	1211.267578	3267.710693	2011.246582	38.901100
830.345947	1247.424805	3100.483398	2036.104736	42.560982
830.653442	1222.566772	2854.162354	1918.593628	42.659275
830.960876	1218.047119	2741.170898	1905.034668	45.103855
831.268250	1249.684692	2632.699219	1773.964722	37.908497
831.575623	1202.228271	2499.369385	1762.665527	43.205574
831.882874	1163.811279	2420.275391	1658.713501	39.388489
832.190125	1233.865845	2399.937012	1701.650146	40.116272
832.497314	1335.558105	2298.244629	1681.311768	35.915497
832.804504	1378.494873	2250.788330	1706.169800	37.564758
833.111572	1147.992432	2117.458496	1660.973267	52.913750
833.418640	1227.086426	2187.513184	1640.634888	43.058823
833.725586	1285.841919	2377.338623	1710.689453	38.923393
834.032532	1215.787231	2451.912842	1633.855347	33.820843
834.339417	1274.542725	2639.478760	1882.436401	44.536423
834.646301	1270.023071	2729.871826	1846.279175	39.473686
834.953003	1283.582031	2910.657959	1952.491089	41.111115
835.259827	1245.165039	2917.437500	2011.246582	45.810810
835.566467	1290.361572	2894.839111	2027.065430	45.915497
835.873108	1256.464111	2935.516113	1909.554321	38.896366
836.179688	1256.464111	2750.210205	1914.073975	44.024208
836.486267	1202.228271	2718.572510	1938.932129	48.584209
836.792664	1231.606079	2512.928223	1755.886108	40.917114
837.099121	1267.763306	2488.070313	1794.303101	43.148140
837.405518	1283.582031	2515.188232	1785.263794	40.733944
837.711792	1254.204346	2368.299316	1694.870728	39.553753
838.018127	1177.370239	2198.812256	1645.154541	45.796463
838.324341	1292.621338	2162.655029	1654.193848	41.558449
838.630554	1281.322266	2067.742188	1667.752808	49.137939
838.936646	1227.086426	2006.726929	1649.674194	54.202900
839.242737	1283.582031	1997.687622	1570.580200	40.189877
839.548767	1263.243652	1984.128662	1511.824707	34.482761
839.854797	1279.062378	2049.663574	1547.981934	34.897369
840.160645	1236.125732	1932.152588	1500.525513	37.987007
840.466553	1166.071045	1977.349121	1525.383667	44.289700
840.772400	1157.031738	1846.279175	1477.927246	46.557373
841.078186	1177.370239	1966.050049	1615.776733	55.587387
841.383850	1177.370239	1902.774902	1518.604126	47.040485
841.689575	1249.684692	1929.892822	1547.981934	43.853817
841.995178	1220.306885	2002.207275	1502.785400	36.127174
842.300781	1242.905151	2002.207275	1552.501587	40.773815
842.606262	1294.881226	1968.309814	1570.580200	40.939602
842.911743	1279.062378	1927.632935	1541.202393	40.418118
843.217163	1242.905151	1710.689453	1450.809326	44.444454
843.522583	1247.424805	1857.578247	1414.652100	27.407417
843.827881	1240.645386	1810.121948	1428.211060	32.936504
844.133179	1263.243652	1855.318481	1414.652100	25.572519
844.438354	1265.503418	1783.004028	1523.123779	49.781654
844.743530	1218.047119	1721.988647	1412.392212	38.565010
845.048645	1279.062378	1780.744141	1489.226440	41.891907
845.353760	1227.086426	1658.713501	1355.896606	29.842934
845.658752	1283.582031	1794.303101	1507.305054	43.805325
845.963745	1294.881226	1735.547607	1484.706787	43.076931
846.268555	1202.228271	1622.556274	1364.935913	38.709682
846.573486	1184.149658	1557.021240	1346.857300	43.636375
846.878296	1353.636719	1758.145874	1480.187134	31.284933
847.183044	1206.747925	1685.831421	1392.053833	38.679253
847.487732	1229.346191	1577.359619	1419.171753	54.545471
847.792419	1290.361572	1731.027954	1457.588867	37.948730
848.097046	1249.684692	1633.855347	1430.470825	47.058807
848.401611	1240.645386	1618.036621	1324.259033	22.155695
848.706055	1202.228271	1658.713501	1385.274292	40.099003
849.010559	1218.047119	1611.257080	1326.518799	27.586199
849.314941	1229.346191	1649.674194	1416.911865	44.623646
849.619324	1199.968506	1568.320313	1335.558105	36.809811
849.923584	1188.669312	1520.864014	1301.660645	34.013588
850.227844	1197.708618	1541.202393	1290.361572	26.973692
850.532043	1163.811279	1550.241699	1254.204346	23.391809
850.836243	1220.306885	1588.658813	1358.156372	37.423309
851.140320	1249.684692	1579.619507	1405.612793	47.260277
851.444397	1247.424805	1679.051880	1376.234985	29.842934
851.748352	1256.464111	1599.958008	1344.597412	25.657894
852.052307	1283.582031	1563.800659	1362.676025	28.225817
852.356140	1242.905151	1608.997314	1249.684692	1.851867
852.660095	1260.983765	1627.075928	1358.156372	26.543209
852.963806	1308.440186	1656.453613	1321.999146	3.896102
853.267578	1507.305054	1789.783447	1511.824707	1.600000
853.571228	1256.464111	1577.359619	1376.234985	37.323948
853.874939	1209.007813	1647.414307	1371.715332	37.113392
854.178467	1227.086426	1489.226440	1448.549561	84.482765
854.482056	1231.606079	1579.619507	1389.793945	45.454529
854.785461	1254.204346	1595.438354	1425.951172	50.331100
855.088989	1245.165039	1514.084473	1301.660645	21.008375
855.392273	1229.346191	1536.682739	1396.573486	54.411781
855.695679	1229.346191	1523.123779	1360.416260	44.615406
855.998901	1367.195679	1712.949341	1462.108521	27.451000
856.302185	1222.566772	1516.344360	1308.440186	29.230757
856.605286	1290.361572	1636.115234	1396.573486	30.718956
856.908508	1211.267578	1640.634888	1401.093140	44.210529
857.211548	1215.787231	1606.737427	1306.180420	23.121408
857.514587	1220.306885	1505.045166	1310.700073	31.746061
857.817566	1143.472778	1477.927246	1256.464111	33.783772
858.120483	1229.346191	1590.918701	1396.573486	46.250004
858.423340	1294.881226	1667.752808	1342.337646	12.727283
858.726196	1179.630005	1464.368286	1315.219727	47.619072
859.028931	1236.125732	1561.540894	1385.274292	45.833317
859.331665	1170.590698	1561.540894	1333.298340	41.618507
859.634277	1211.267578	1597.698120	1351.376953	36.257324
859.936890	1188.669312	1559.281006	1403.352905	57.926826
860.239441	1263.243652	1538.942627	1274.542725	4.098337
860.541992	1231.606079	1538.942627	1319.739380	28.676479
860.844421	1218.047119	1507.305054	1383.014526	57.031246
861.146912	1186.409546	1507.305054	1373.975220	58.450703
861.449219	1166.071045	1471.147827	1281.322266	37.777775
861.751526	1299.400879	1588.658813	1373.975220	25.781260
862.053772	1344.597412	1670.012573	1383.014526	11.805570
862.355957	1358.156372	1606.737427	1387.534180	11.818200
862.658081	1218.047119	1525.383667	1315.219727	31.617655
862.960266	1197.708618	1498.265747	1331.038452	44.360897
863.262207	1195.448853	1486.966553	1263.243652	23.255810
863.564331	1285.841919	1529.903320	1412.392212	51.851826
863.866211	1206.747925	1622.556274	1283.582031	18.478251
864.168091	1195.448853	1482.446899	1328.778687	46.456703
864.469910	1256.464111	1428.211060	1272.282959	9.210555
864.771729	1260.983765	1423.691406	1303.920532	26.388906
865.073425	1242.905151	1498.265747	1312.959839	27.433632
865.375122	1159.291626	1509.564819	1222.566772	18.064512
865.676819	1195.448853	1496.005859	1276.802612	27.067663
865.978333	1166.071045	1468.887939	1344.597412	58.955219
866.279907	1331.038452	1602.217773	1362.676025	11.666661
866.581360	1170.590698	1566.060547	1410.132446	60.571430
866.882874	1181.889893	1477.927246	1349.117065	56.488537
867.184143	1181.889893	1532.163086	1340.077759	45.161282
867.485535	1141.212891	1523.123779	1371.715332	60.355034
867.786743	1249.684692	1570.580200	1410.132446	50.000000
868.088013	1378.494873	1590.918701	1364.935913	-6.382975
868.389160	1249.684692	1649.674194	1450.809326	50.282478
868.690308	1195.448853	1496.005859	1369.455566	57.894745
868.991333	1247.424805	1518.604126	1396.573486	55.000019
869.292358	1229.346191	1618.036621	1371.715332	36.627899
869.593323	1346.857300	1660.973267	1419.171753	23.021578
869.894287	1177.370239	1552.501587	1301.660645	33.132504
870.195068	1251.944458	1577.359619	1308.440186	17.361124
870.495911	1290.361572	1566.060547	1328.778687	13.934443
870.796692	1260.983765	1468.887939	1283.582031	10.869559
871.097412	1211.267578	1444.029785	1297.140991	36.893196
871.398010	1242.905151	1518.604126	1333.298340	32.786915
871.698669	1213.527466	1383.014526	1333.298340	70.666679
871.999207	1267.763306	1507.305054	1355.896606	36.792461
872.299683	1256.464111	1489.226440	1260.983765	1.941746
872.600159	1238.385498	1532.163086	1324.259033	29.230799
872.900574	1209.007813	1477.927246	1416.911865	77.310905
873.200867	1220.306885	1500.525513	1353.636719	47.580647
873.501160	1276.802612	1514.084473	1276.802612	0.000000
873.801392	1204.488159	1509.564819	1317.479492	37.037029
874.101624	1231.606079	1527.643433	1346.857300	38.931309
874.401733	1297.140991	1559.281006	1306.180420	3.448321
874.701843	1245.165039	1518.604126	1346.857300	37.190098
875.001831	1324.259033	1545.722046	1315.219727	-4.081633
875.301819	1213.527466	1511.824707	1360.416260	49.242424
875.601746	1272.282959	1586.398926	1421.431519	47.482006
875.901672	1281.322266	1577.359619	1367.195679	29.007627
876.201477	1267.763306	1444.029785	1303.920532	20.512821
876.501282	1202.228271	1498.265747	1258.723999	19.083979
876.800964	1184.149658	1516.344360	1247.424805	19.047609
877.100647	1147.992432	1547.981934	1335.558105	46.892651
877.400208	1181.889893	1559.281006	1364.935913	48.503002
877.699829	1337.817993	1674.532227	1423.691406	25.503351
877.999329	1218.047119	1532.163086	1324.259033	33.812962
878.298767	1184.149658	1493.746094	1294.881226	35.766422
878.598206	1270.023071	1577.359619	1364.935913	30.882380
878.897583	1204.488159	1579.619507	1398.833252	51.807213
879.196838	1227.086426	1507.305054	1270.023071	15.322552
879.496155	1163.811279	1577.359619	1335.558105	41.530048
879.795288	1245.165039	1563.800659	1371.715332	39.716305
880.094482	1238.385498	1588.658813	1403.352905	47.096767
880.393555	1161.551392	1640.634888	1378.494873	45.283020
880.692627	1220.306885	1613.516968	1412.392212	48.850559
880.991577	1254.204346	1692.610840	1306.180420	11.855680
881.290588	1267.763306	1767.185181	1425.951172	31.674196
881.589355	1157.031738	1947.971436	1414.652100	32.571430
881.888306	1213.527466	2180.733643	1683.571533	48.598125
882.187012	1297.140991	2305.024170	1807.862061	50.672646
882.485840	1297.140991	2691.454590	1857.578247	40.194492
882.784424	1265.503418	2901.618652	2031.585083	46.823208
883.083069	1265.503418	3245.112549	2151.355957	44.748859
883.381592	1220.306885	3450.756836	2307.283936	48.733532
883.680176	1186.409546	3541.149902	2257.567871	45.489449
883.978638	1190.929199	3590.865967	2284.685791	45.574390
884.277039	1222.566772	3364.883301	2239.489258	47.468361
884.575378	1249.684692	3380.702148	2203.332031	44.750797
884.873779	1152.512085	3093.704102	2221.410645	55.064030
885.171997	1227.086426	3123.081787	2110.678955	46.603096
885.470276	1256.464111	3118.562012	2146.836182	47.815536
885.768311	1206.747925	2836.083740	1968.309814	46.740635
886.066528	1159.291626	2634.958984	1859.838135	47.473198
886.364502	1143.472778	2528.747070	1801.082642	47.471455
886.662537	1258.723999	2445.133545	1717.468994	38.666664
886.960510	1236.125732	2266.607178	1658.713501	41.008770
887.258362	1249.684692	2219.150635	1615.776733	37.762238
887.556213	1211.267578	1961.530396	1523.123779	41.566261
887.854004	1136.693237	1927.632935	1509.564819	47.142857
888.151733	1242.905151	1891.475708	1527.643433	43.902435
888.449402	1315.219727	1882.436401	1389.793945	13.147395
888.747009	1238.385498	1733.287720	1464.368286	45.662109
889.044617	1132.173584	1697.130493	1396.573486	46.800011
889.342163	1195.448853	1577.359619	1389.793945	50.887566
889.639648	1238.385498	1613.516968	1335.558105	25.903614
889.937012	1141.212891	1536.682739	1344.597412	51.428577
890.234436	1238.385498	1651.933960	1385.274292	35.519123
890.531738	1254.204346	1552.501587	1303.920532	16.666660
890.829041	1199.968506	1579.619507	1326.518799	33.333324
891.126221	1247.424805	1581.879272	1292.621338	13.513509
891.423401	1254.204346	1534.422974	1317.479492	22.580635
891.720459	1236.125732	1509.564819	1328.778687	33.884312
892.017578	1288.101685	1588.658813	1369.455566	27.067694
892.314514	1258.723999	1593.178467	1303.920532	13.513509
892.611511	1281.322266	1520.864014	1340.077759	24.528290
>>>>>End Processed Spectral Data<<<<<
